Data from mixed_try1_USB4F045381__17__00165.txt Node

Date: Thu Apr 03 20:10:00 EDT 2025
User: mmckonesweet
Spectrometer: USB4F04538
Trigger mode: 4
Integration Time (sec): 2.700000E-3
Scans to average: 1
Electric dark correction enabled: true
Nonlinearity correction enabled: true
Boxcar width: 0
XAxis mode: Wavelengths
Number of Pixels in Spectrum: 3648
>>>>>Begin Spectral Data<<<<<
345.52	-42.31821
345.736	-42.31821
345.952	-42.31821
346.168	-31.78348
346.384	33.54542
346.6	27.22227
346.816	-2.28298
347.032	-65.49239
347.248	44.08449
347.464	-29.67646
347.68	48.30027
347.896	16.68414
348.112	-12.81942
348.328	35.65319
348.544	-23.35526
348.76	-67.59898
348.975	29.32996
349.191	69.38059
349.407	-29.67646
349.623	-54.95905
349.839	20.89932
350.055	48.30027
350.27	10.36155
350.486	-0.17561
350.702	10.36155
350.918	-90.7698
351.133	-35.99745
351.349	18.79172
351.565	63.05626
351.781	18.79172
351.996	-69.70555
352.212	-6.49763
352.428	-0.17561
352.644	18.79172
352.859	-46.53192
353.075	-27.56942
353.291	1.93177
353.506	-29.67646
353.722	6.14661
353.938	54.62413
354.153	60.94819
354.369	-29.67646
354.584	29.32996
354.8	-27.56942
355.016	-82.34441
355.231	-6.49763
355.447	-31.78348
355.662	33.54542
355.878	10.36155
356.093	44.08449
356.309	-29.67646
356.524	63.05626
356.74	-57.06577
356.955	-35.99745
357.171	18.79172
357.386	-14.92664
357.602	-12.81942
357.817	-97.08857
358.033	1.93177
358.248	46.19237
358.464	27.22227
358.679	39.86879
358.895	23.00695
359.11	-67.59898
359.325	18.79172
359.541	16.68414
359.756	10.36155
359.972	-12.81942
360.187	-29.67646
360.402	41.97663
360.618	18.79172
360.833	-50.74553
361.048	-0.17561
361.264	-10.71218
361.479	-10.71218
361.694	-19.141
361.909	-27.56942
362.125	-4.39031
362.34	-23.35526
362.555	-10.71218
362.77	25.11459
362.986	31.43768
363.201	-35.99745
363.416	52.51615
363.631	-42.31821
363.847	14.57659
364.062	-21.24814
364.277	-2.28298
364.492	-2.28298
364.707	31.43768
364.922	-12.81942
365.138	-38.10439
365.353	39.86879
365.568	-44.42508
365.783	-52.8523
365.998	16.68414
366.213	-48.63874
366.428	-6.49763
366.643	-14.92664
366.858	-2.28298
367.073	-54.95905
367.288	-10.71218
367.503	-10.71218
367.718	35.65319
367.933	-14.92664
368.148	65.16435
368.363	10.36155
368.578	-2.28298
368.793	63.05626
369.008	4.03918
369.223	-40.21131
369.438	-35.99745
369.653	-21.24814
369.868	-10.71218
370.083	-50.74553
370.298	-14.92664
370.513	1.93177
370.728	-23.35526
370.943	-12.81942
371.157	35.65319
371.372	-6.49763
371.587	-8.60492
371.802	-21.24814
372.017	-40.21131
372.232	8.25407
372.446	35.65319
372.661	27.22227
372.876	-33.89048
373.091	-31.78348
373.306	8.25407
373.52	1.93177
373.735	10.36155
373.95	46.19237
374.165	63.05626
374.379	77.81336
374.594	-14.92664
374.809	39.86879
375.023	20.89932
375.238	-21.24814
375.453	-19.141
375.667	-6.49763
375.882	-65.49239
376.097	-65.49239
376.311	-12.81942
376.526	-10.71218
376.741	18.79172
376.955	-23.35526
377.17	50.4082
377.384	-10.71218
377.599	-19.141
377.813	-19.141
378.028	29.32996
378.242	-48.63874
378.457	14.57659
378.672	73.59693
378.886	48.30027
379.101	23.00695
379.315	-57.06577
379.53	69.38059
379.744	35.65319
379.958	10.36155
380.173	37.76098
380.387	37.76098
380.602	-12.81942
380.816	-19.141
381.031	6.14661
381.245	23.00695
381.459	90.46319
381.674	1.93177
381.888	14.57659
382.103	-63.38577
382.317	-61.27913
382.531	27.22227
382.746	23.00695
382.96	25.11459
383.174	44.08449
383.388	-14.92664
383.603	31.43768
383.817	-12.81942
384.031	33.54542
384.246	-23.35526
384.46	10.36155
384.674	-38.10439
384.888	-27.56942
385.103	-10.71218
385.317	52.51615
385.531	-21.24814
385.745	-12.81942
385.959	27.22227
386.174	-14.92664
386.388	-6.49763
386.602	14.57659
386.816	-17.03383
387.03	8.25407
387.244	39.86879
387.458	60.94819
387.672	48.30027
387.887	-10.71218
388.101	4.03918
388.315	35.65319
388.529	-8.60492
388.743	-38.10439
388.957	-10.71218
389.171	41.97663
389.385	12.46906
389.599	-10.71218
389.813	-35.99745
390.027	-10.71218
390.241	60.94819
390.455	14.57659
390.669	-40.21131
390.883	-12.81942
391.097	-17.03383
391.311	-54.95905
391.525	-2.28298
391.738	35.65319
391.952	35.65319
392.166	-57.06577
392.38	14.57659
392.594	27.22227
392.808	-31.78348
393.022	-4.39031
393.236	69.38059
393.449	-19.141
393.663	77.81336
393.877	27.22227
394.091	14.57659
394.305	1.93177
394.518	-12.81942
394.732	1.93177
394.946	-4.39031
395.16	4.03918
395.373	14.57659
395.587	-12.81942
395.801	-19.141
396.015	10.36155
396.228	-42.31821
396.442	67.27246
396.656	4.03918
396.869	37.76098
397.083	27.22227
397.297	20.89932
397.51	-82.34441
397.724	10.36155
397.938	-38.10439
398.151	-29.67646
398.365	73.59693
398.578	4.03918
398.792	44.08449
399.005	10.36155
399.219	6.14661
399.433	-29.67646
399.646	14.57659
399.86	-4.39031
400.073	-57.06577
400.287	20.89932
400.5	-6.49763
400.714	20.89932
400.927	54.62413
401.141	12.46906
401.354	12.46906
401.567	1.93177
401.781	31.43768
401.994	-63.38577
402.208	10.36155
402.421	-23.35526
402.635	27.22227
402.848	-14.92664
403.061	-8.60492
403.275	-14.92664
403.488	27.22227
403.701	88.35483
403.915	10.36155
404.128	-31.78348
404.341	-40.21131
404.555	-6.49763
404.768	6.14661
404.981	56.73213
405.195	27.22227
405.408	-54.95905
405.621	4.03918
405.834	-44.42508
406.048	-4.39031
406.261	56.73213
406.474	82.02988
406.687	60.94819
406.9	18.79172
407.114	35.65319
407.327	27.22227
407.54	4.03918
407.753	10.36155
407.966	39.86879
408.179	6.14661
408.392	4.03918
408.605	-6.49763
408.819	-40.21131
409.032	-4.39031
409.245	-21.24814
409.458	-31.78348
409.671	48.30027
409.884	8.25407
410.097	-6.49763
410.31	-90.7698
410.523	-21.24814
410.736	-23.35526
410.949	25.11459
411.162	-14.92664
411.375	-23.35526
411.588	10.36155
411.801	71.48875
412.014	-63.38577
412.227	58.84015
412.44	79.92161
412.653	33.54542
412.865	-23.35526
413.078	33.54542
413.291	27.22227
413.504	-29.67646
413.717	1.93177
413.93	-6.49763
414.143	18.79172
414.356	-6.49763
414.568	56.73213
414.781	27.22227
414.994	-17.03383
415.207	44.08449
415.42	20.89932
415.632	14.57659
415.845	-14.92664
416.058	-63.38577
416.271	16.68414
416.483	88.35483
416.696	77.81336
416.909	-38.10439
417.121	-6.49763
417.334	14.57659
417.547	-14.92664
417.759	6.14661
417.972	-44.42508
418.185	50.4082
418.397	29.32996
418.61	35.65319
418.823	-6.49763
419.035	-52.8523
419.248	46.19237
419.46	60.94819
419.673	29.32996
419.885	-12.81942
420.098	27.22227
420.311	4.03918
420.523	-69.70555
420.736	27.22227
420.948	27.22227
421.161	-38.10439
421.373	-46.53192
421.586	-8.60492
421.798	35.65319
422.01	90.46319
422.223	-38.10439
422.435	54.62413
422.648	-71.81209
422.86	-69.70555
423.073	-31.78348
423.285	-69.70555
423.497	14.57659
423.71	-8.60492
423.922	54.62413
424.134	33.54542
424.347	27.22227
424.559	63.05626
424.771	-48.63874
424.984	8.25407
425.196	1.93177
425.408	1.93177
425.621	63.05626
425.833	46.19237
426.045	-0.17561
426.257	10.36155
426.47	37.76098
426.682	46.19237
426.894	10.36155
427.106	31.43768
427.318	27.22227
427.531	18.79172
427.743	31.43768
427.955	14.57659
428.167	10.36155
428.379	-14.92664
428.591	20.89932
428.804	10.36155
429.016	-38.10439
429.228	-31.78348
429.44	56.73213
429.652	39.86879
429.864	52.51615
430.076	-14.92664
430.288	-12.81942
430.5	10.36155
430.712	-6.49763
430.924	23.00695
431.136	-2.28298
431.348	-4.39031
431.56	-29.67646
431.772	-2.28298
431.984	52.51615
432.196	90.46319
432.408	-21.24814
432.62	-10.71218
432.832	18.79172
433.044	-2.28298
433.256	77.81336
433.468	33.54542
433.679	-2.28298
433.891	8.25407
434.103	-6.49763
434.315	1.93177
434.527	18.79172
434.739	-29.67646
434.95	-17.03383
435.162	77.81336
435.374	14.57659
435.586	4.03918
435.798	-29.67646
436.009	-46.53192
436.221	-23.35526
436.433	44.08449
436.645	65.16435
436.856	37.76098
437.068	35.65319
437.28	-86.55716
437.491	-6.49763
437.703	-6.49763
437.915	-38.10439
438.126	27.22227
438.338	25.11459
438.55	6.14661
438.761	8.25407
438.973	20.89932
439.184	1.93177
439.396	-6.49763
439.608	-2.28298
439.819	-21.24814
440.031	-33.89048
440.242	-4.39031
440.454	12.46906
440.665	35.65319
440.877	14.57659
441.088	39.86879
441.3	35.65319
441.511	71.48875
441.723	79.92161
441.934	-14.92664
442.146	27.22227
442.357	4.03918
442.569	69.38059
442.78	60.94819
442.991	23.00695
443.203	-63.38577
443.414	-23.35526
443.626	44.08449
443.837	44.08449
444.048	-23.35526
444.26	-19.141
444.471	-31.78348
444.682	56.73213
444.894	27.22227
445.105	20.89932
445.316	-4.39031
445.528	-12.81942
445.739	-0.17561
445.95	31.43768
446.161	10.36155
446.373	58.84015
446.584	-52.8523
446.795	10.36155
447.006	-10.71218
447.217	1.93177
447.429	10.36155
447.64	12.46906
447.851	-38.10439
448.062	12.46906
448.273	23.00695
448.484	-6.49763
448.695	14.57659
448.907	-103.40711
449.118	-69.70555
449.329	-8.60492
449.54	1.93177
449.751	10.36155
449.962	65.16435
450.173	73.59693
450.384	4.03918
450.595	65.16435
450.806	31.43768
451.017	-40.21131
451.228	52.51615
451.439	44.08449
451.65	-31.78348
451.861	-54.95905
452.072	-6.49763
452.283	39.86879
452.494	50.4082
452.705	39.86879
452.915	20.89932
453.126	71.48875
453.337	23.00695
453.548	90.46319
453.759	10.36155
453.97	14.57659
454.181	44.08449
454.391	60.94819
454.602	-23.35526
454.813	-14.92664
455.024	-31.78348
455.235	-27.56942
455.445	12.46906
455.656	18.79172
455.867	31.43768
456.078	-12.81942
456.288	105.22233
456.499	1.93177
456.71	23.00695
456.921	1.93177
457.131	-12.81942
457.342	77.81336
457.553	-40.21131
457.763	-35.99745
457.974	52.51615
458.184	12.46906
458.395	-4.39031
458.606	111.54801
458.816	-2.28298
459.027	96.7884
459.237	18.79172
459.448	10.36155
459.659	50.4082
459.869	119.98255
460.08	-10.71218
460.29	20.89932
460.501	1.93177
460.711	6.14661
460.922	54.62413
461.132	27.22227
461.343	37.76098
461.553	35.65319
461.764	82.02988
461.974	18.79172
462.184	52.51615
462.395	73.59693
462.605	35.65319
462.816	94.67998
463.026	6.14661
463.236	18.79172
463.447	37.76098
463.657	52.51615
463.867	94.67998
464.078	63.05626
464.288	52.51615
464.498	35.65319
464.709	75.70514
464.919	-4.39031
465.129	65.16435
465.339	77.81336
465.55	6.14661
465.76	-40.21131
465.97	41.97663
466.18	27.22227
466.391	27.22227
466.601	103.11382
466.811	4.03918
467.021	31.43768
467.231	12.46906
467.441	25.11459
467.651	37.76098
467.862	46.19237
468.072	35.65319
468.282	113.65661
468.492	-27.56942
468.702	14.57659
468.912	88.35483
469.122	10.36155
469.332	18.79172
469.542	18.79172
469.752	18.79172
469.962	60.94819
470.172	10.36155
470.382	128.41744
470.592	37.76098
470.802	4.03918
471.012	-44.42508
471.222	46.19237
471.432	46.19237
471.642	44.08449
471.852	48.30027
472.062	29.32996
472.272	67.27246
472.482	50.4082
472.691	-29.67646
472.901	69.38059
473.111	39.86879
473.321	37.76098
473.531	-6.49763
473.741	88.35483
473.95	-48.63874
474.16	103.11382
474.37	96.7884
474.58	41.97663
474.79	86.24649
474.999	56.73213
475.209	37.76098
475.419	67.27246
475.628	31.43768
475.838	79.92161
476.048	-12.81942
476.258	46.19237
476.467	-4.39031
476.677	37.76098
476.886	65.16435
477.096	31.43768
477.306	56.73213
477.515	58.84015
477.725	82.02988
477.935	10.36155
478.144	124.19996
478.354	54.62413
478.563	54.62413
478.773	105.22233
478.982	27.22227
479.192	75.70514
479.401	96.7884
479.611	52.51615
479.82	73.59693
480.03	117.87389
480.239	73.59693
480.449	107.33087
480.658	111.54801
480.868	111.54801
481.077	136.85268
481.287	128.41744
481.496	79.92161
481.705	79.92161
481.915	86.24649
482.124	103.11382
482.333	113.65661
482.543	48.30027
482.752	48.30027
482.961	128.41744
483.171	103.11382
483.38	217.0041
483.589	98.89685
483.799	162.16043
484.008	52.51615
484.217	86.24649
484.426	46.19237
484.636	113.65661
484.845	122.09124
485.054	107.33087
485.263	187.47118
485.472	122.09124
485.682	212.78487
485.891	105.22233
486.1	145.28826
486.309	164.26954
486.518	157.94226
486.727	166.37868
486.936	162.16043
487.146	145.28826
487.355	94.67998
487.564	195.90876
487.773	214.89448
487.982	60.94819
488.191	225.4428
488.4	208.56572
488.609	252.87071
488.818	227.55252
489.027	271.86117
489.236	208.56572
489.445	276.08147
489.654	174.81543
489.863	212.78487
490.072	271.86117
490.281	233.8818
490.49	238.10143
490.698	179.03394
490.907	322.50973
491.116	330.95217
491.325	204.34665
491.534	314.06758
491.743	271.86117
491.952	297.18413
492.16	229.66226
492.369	368.94661
492.578	276.08147
492.787	341.50562
492.996	307.73615
493.204	297.18413
493.413	297.18413
493.622	324.62032
493.831	254.98069
494.039	352.0595
494.248	284.52232
494.457	314.06758
494.665	411.16909
494.874	358.39204
495.083	349.94869
495.291	417.50302
495.5	364.72473
495.709	423.8371
495.917	394.2793
496.126	415.39169
496.335	373.16856
496.543	318.28862
496.752	322.50973
496.96	516.75291
497.169	385.8348
497.377	383.72372
497.586	459.73291
497.794	525.20123
498.003	457.62127
498.211	440.72869
498.42	390.05702
498.628	466.06793
498.837	432.28277
499.045	550.54751
499.254	529.42547
499.462	529.42547
499.671	436.5057
499.879	626.59793
500.087	558.99671
500.296	567.44613
500.504	546.32299
500.713	601.24592
500.921	643.50026
501.129	493.52124
501.338	578.0082
501.546	611.80904
501.754	413.28038
501.962	675.19421
502.171	586.4581
502.379	630.82344
502.587	702.6644
502.795	605.47113
503.004	609.69639
503.212	736.47644
503.42	649.83884
503.628	766.06419
503.837	681.53331
504.045	681.53331
504.253	673.0812
504.461	810.44948
504.669	808.3358
504.877	734.3631
505.085	734.3631
505.294	875.97805
505.502	757.61034
505.71	842.15579
505.918	713.23036
506.126	888.66195
506.334	753.38348
506.542	852.72501
506.75	831.58679
506.958	888.66195
507.166	808.3358
507.374	897.11805
507.582	869.63621
507.79	939.40039
507.998	897.11805
508.206	901.34614
508.414	918.25884
508.622	977.45701
508.83	966.8855
509.037	1104.32706
509.245	941.51459
509.453	897.11805
509.661	888.66195
509.869	1157.19508
510.077	897.11805
510.285	994.37177
510.492	1023.97359
510.7	1110.67107
510.908	871.75015
511.116	1040.88944
511.324	873.8641
511.531	1070.49307
511.739	949.97145
511.947	1100.09774
512.155	1110.67107
512.362	1049.34751
512.57	1066.26392
512.778	1167.76901
512.985	1074.72225
513.193	1214.29538
513.401	1087.4099
513.608	1275.62793
513.816	1362.34271
514.024	1163.53942
514.231	1201.6062
514.439	1193.14681
514.646	1144.50651
514.854	1256.59344
515.061	1265.05319
515.269	1385.60808
515.477	1330.61746
515.684	1345.42254
515.892	1320.04245
516.099	1218.52513
516.307	1286.20273
516.514	1430.02404
516.722	1315.81245
516.929	1489.24548
517.136	1343.30752
517.344	1260.82331
517.551	1284.08777
517.759	1440.5993
517.966	1451.17456
518.173	1552.69659
518.381	1353.88261
518.588	1485.01538
518.796	1485.01538
519.003	1649.9858
519.21	1523.08617
519.418	1491.36052
519.625	1639.4111
519.832	1620.37648
520.039	1493.47557
520.247	1616.14654
520.454	1700.74347
520.661	1757.8437
520.868	1633.06625
521.076	1709.20292
521.283	1685.93932
521.49	1778.99126
521.697	1734.58094
521.904	1762.07324
522.112	1607.68664
522.319	1939.69786
522.526	1768.41752
522.733	1888.95155
522.94	1755.72892
523.147	1872.03543
523.354	1762.07324
523.561	2100.37091
523.768	1802.25311
523.975	1914.32511
524.183	1798.02372
524.39	1937.5835
524.597	1969.29835
524.804	1973.52689
525.011	1715.54747
525.218	2032.72383
525.425	1916.43953
525.632	2030.60975
525.838	1861.46268
526.045	2062.32033
526.252	1869.92089
526.459	2191.25942
526.666	1981.98391
526.873	2229.30125
527.08	2055.97834
527.287	2195.48643
527.494	1956.61257
527.701	2292.69789
527.907	2140.53276
528.114	2290.5848
528.321	2106.71244
528.528	2307.48924
528.735	2231.4146
528.941	2178.5782
529.148	2140.53276
529.355	2165.89668
529.562	2282.13235
529.768	2364.53715
529.975	2127.85038
530.182	2434.25236
530.388	2241.98122
530.595	2419.46523
530.802	2267.34022
531.008	2396.22728
531.215	2309.60225
531.422	2468.04951
531.628	2383.5515
531.835	2514.51598
532.042	2455.3759
532.248	2753.09351
532.455	2489.17131
532.661	2706.65741
532.868	2548.30632
533.074	2704.54653
533.281	2622.21214
533.487	2837.50609
533.694	2613.76651
533.9	2805.85395
534.107	2539.85902
534.313	2731.98699
534.52	2691.88096
534.726	2896.58162
534.933	2736.2084
535.139	2791.08188
535.345	2643.32535
535.552	2784.75079
535.758	2791.08188
535.965	2867.04525
536.171	2725.65477
536.377	2867.04525
536.584	2774.1987
536.79	2978.84646
536.996	2850.16607
537.203	2959.86426
537.409	2750.98292
537.615	2995.7185
537.821	2854.38595
538.028	3069.5222
538.234	2850.16607
538.44	3170.70742
538.646	3052.65445
538.853	3143.30673
539.059	3002.04527
539.265	3322.41441
539.471	3164.38443
539.677	3330.84
539.883	3052.65445
540.09	3372.9638
540.296	3212.85693
540.502	3459.29559
540.708	3170.70742
540.914	3444.55813
541.12	3457.19029
541.326	3495.08287
541.532	3448.76892
541.738	3358.22126
541.944	3307.66896
542.15	3381.38772
542.356	3501.39773
542.562	3560.32848
542.768	3276.06875
542.974	3511.92213
543.18	3406.6578
543.386	3562.43288
543.592	3692.86923
543.798	3593.99669
544.004	3692.86923
544.21	3770.67533
544.415	3419.29188
544.621	3589.78842
544.827	3408.76352
545.033	3644.49002
545.239	3673.93944
545.445	3827.43591
545.651	3554.01516
545.856	3718.10654
546.062	3705.48823
546.268	3753.85464
546.474	3617.14081
546.679	3646.59367
546.885	3596.10079
547.091	3776.98277
547.297	3566.64163
547.502	3783.29003
547.708	3785.39241
547.914	3776.98277
548.119	3772.77783
548.325	4069.03043
548.531	3793.80174
548.736	3964.02231
548.942	3888.38493
549.147	3982.92755
549.353	3945.11542
549.559	4039.63334
549.764	4010.23221
549.97	4188.67641
550.175	4018.63294
550.381	4182.38096
550.586	3882.08063
550.792	4341.8067
550.997	4052.23259
551.203	4283.08529
551.408	3987.1285
551.614	4069.03043
551.819	4163.49345
552.025	4371.16106
552.23	4037.53339
552.435	4268.4023
552.641	4148.80199
552.846	4379.54723
553.052	4427.76099
553.257	4465.48542
553.462	4299.86456
553.668	4503.20273
553.873	4396.31854
554.078	4543.00769
554.283	4467.58101
554.489	4607.93542
554.694	4545.10247
554.899	4524.15371
555.105	4448.71988
555.31	4513.6785
555.515	4463.38981
555.72	4664.46789
555.925	4381.64372
556.131	4802.58928
556.336	4603.74718
556.541	4804.68127
556.746	4624.68748
556.951	4754.46725
557.156	4595.37043
557.361	4787.94471
557.567	4729.35535
557.772	4902.97905
557.977	4633.06298
558.182	4909.25166
558.387	4725.16972
558.592	4921.79626
558.797	4817.23273
559.002	5059.73224
559.207	4892.52424
559.412	5026.30244
559.617	4739.81904
559.822	4917.61482
560.027	4633.06298
560.232	4917.61482
560.437	5082.71178
560.642	5130.75086
560.847	4978.23675
561.051	5088.97845
561.256	5001.22621
561.461	5235.14119
561.666	5118.22011
561.871	5253.92526
562.076	4783.76035
562.281	5155.80985
562.485	4867.43036
562.69	5228.87941
562.895	5038.83931
563.1	5159.98602
563.305	4994.95664
563.509	5147.45723
563.714	5026.30244
563.919	5182.95331
564.123	4792.12899
564.328	5306.09329
564.533	5084.80069
564.737	5289.40111
564.942	5185.0411
565.147	5564.62997
565.351	5032.57098
565.556	5268.53378
565.761	5343.64521
565.965	5404.12955
566.17	5331.12875
566.374	5256.01226
566.579	5541.70988
566.784	5370.76132
566.988	5520.87097
567.193	5527.12289
567.397	5287.31448
567.602	5472.93253
567.806	5339.47315
568.011	5783.26899
568.215	5472.93253
568.42	5693.76256
568.624	5483.35498
568.828	5716.6637
569.033	5602.12941
569.237	5752.05077
569.442	5562.54644
569.646	5618.79338
569.85	5435.4068
570.055	5835.28755
570.259	5595.88004
570.463	5947.59731
570.668	5745.80649
570.872	5716.6637
571.076	5581.29733
571.281	5731.23567
571.485	5568.79695
571.689	5851.93037
571.893	5710.41822
572.098	5997.49069
572.302	5587.5472
572.506	5837.36798
572.71	5831.12661
572.914	5995.41207
573.119	5814.48189
573.323	6051.52653
573.527	5962.15095
573.731	6095.15925
573.935	5991.25476
574.139	6012.04036
574.343	5891.45103
574.547	6128.39626
574.751	5968.38787
574.955	6130.47337
575.159	6028.66715
575.364	6082.69381
575.568	5933.04252
575.772	5987.09735
575.976	5939.28043
576.18	6180.31705
576.383	6005.80493
576.587	6452.14272
576.791	5970.46679
576.995	6277.88844
577.199	6072.30531
577.403	6304.86714
577.607	6205.23382
577.811	6354.66359
578.015	6111.7785
578.219	6456.28963
578.422	6186.54656
