Data from mixed_try1_USB4F045381__26__00174.txt Node

Date: Thu Apr 03 20:12:32 EDT 2025
User: mmckonesweet
Spectrometer: USB4F04538
Trigger mode: 4
Integration Time (sec): 2.700000E-3
Scans to average: 1
Electric dark correction enabled: true
Nonlinearity correction enabled: true
Boxcar width: 0
XAxis mode: Wavelengths
Number of Pixels in Spectrum: 3648
>>>>>Begin Spectral Data<<<<<
345.52	5.79537
345.736	5.79537
345.952	5.79537
346.168	22.65567
346.384	-38.45555
346.6	-51.09666
346.816	5.79537
347.032	-51.09666
347.248	3.68794
347.464	-36.3486
347.68	-38.45555
347.896	22.65567
348.112	-6.84884
348.328	33.19413
348.544	94.32857
348.76	-30.02763
348.975	54.2728
349.191	-21.59933
349.407	14.22533
349.623	-2.6342
349.839	35.30189
350.055	28.97868
350.27	-53.20343
350.486	-36.3486
350.702	-48.98987
350.918	-11.06339
351.133	-55.31017
351.349	-53.20343
351.565	-0.52684
351.781	-2.6342
351.996	-11.06339
352.212	-30.02763
352.428	-27.92059
352.644	-25.81353
352.859	37.40968
353.075	41.62532
353.291	18.44046
353.506	54.2728
353.722	62.70491
353.938	-34.24164
354.153	-80.58907
354.369	35.30189
354.584	96.437
354.8	-21.59933
355.016	-11.06339
355.231	-27.92059
355.447	35.30189
355.662	-23.70644
355.878	41.62532
356.093	-2.6342
356.309	-65.84349
356.524	22.65567
356.74	12.11781
356.955	-11.06339
357.171	28.97868
357.386	-34.24164
357.602	-36.3486
357.817	64.813
358.033	41.62532
358.248	-4.74153
358.464	22.65567
358.679	-4.74153
358.895	-44.77622
359.11	31.08639
359.325	37.40968
359.541	-61.63024
359.756	-6.84884
359.972	-63.73688
360.187	20.54805
360.402	-8.95613
360.618	71.13739
360.833	-78.48264
361.048	-4.74153
361.264	58.48881
361.479	-0.52684
361.694	-55.31017
361.909	-51.09666
362.125	50.05688
362.34	56.38079
362.555	31.08639
362.77	-11.06339
362.986	-30.02763
363.201	-42.66935
363.416	3.68794
363.631	-13.17063
363.847	12.11781
364.062	7.90283
364.277	-72.16318
364.492	20.54805
364.707	1.58054
364.922	37.40968
365.138	12.11781
365.353	50.05688
365.568	-21.59933
365.783	-55.31017
365.998	-72.16318
366.213	79.57023
366.428	-0.52684
366.643	33.19413
366.858	-0.52684
367.073	-63.73688
367.288	-46.88306
367.503	26.87099
367.718	-0.52684
367.933	3.68794
368.148	3.68794
368.363	16.33288
368.578	28.97868
368.793	20.54805
369.008	18.44046
369.223	7.90283
369.438	-36.3486
369.653	58.48881
369.868	37.40968
370.083	-13.17063
370.298	12.11781
370.513	-17.38502
370.728	-19.49219
370.943	-34.24164
371.157	-21.59933
371.372	12.11781
371.587	26.87099
371.802	-19.49219
372.017	66.92111
372.232	33.19413
372.446	-38.45555
372.661	-32.13465
372.876	62.70491
373.091	79.57023
373.306	81.6785
373.52	-11.06339
373.735	45.84105
373.95	-6.84884
374.165	12.11781
374.379	-82.69548
374.594	-8.95613
374.809	-51.09666
375.023	14.22533
375.238	-21.59933
375.453	26.87099
375.667	-0.52684
375.882	-21.59933
376.097	-2.6342
376.311	28.97868
376.526	-36.3486
376.741	98.54544
376.955	-30.02763
377.17	-15.27784
377.384	-21.59933
377.599	22.65567
377.813	-2.6342
378.028	-4.74153
378.242	-23.70644
378.457	3.68794
378.672	18.44046
378.886	20.54805
379.101	-0.52684
379.315	47.94895
379.53	83.78679
379.744	1.58054
379.958	-59.52357
380.173	5.79537
380.387	-4.74153
380.602	-34.24164
380.816	20.54805
381.031	20.54805
381.245	-53.20343
381.459	-21.59933
381.674	10.01031
381.888	24.76332
382.103	54.2728
382.317	-21.59933
382.531	24.76332
382.746	-13.17063
382.96	-19.49219
383.174	102.7624
383.388	-78.48264
383.603	28.97868
383.817	-46.88306
384.031	-46.88306
384.246	60.59685
384.46	28.97868
384.674	39.51749
384.888	14.22533
385.103	-120.60637
385.317	12.11781
385.531	7.90283
385.745	-17.38502
385.959	-8.95613
386.174	73.24557
386.388	37.40968
386.602	31.08639
386.816	-30.02763
387.03	7.90283
387.244	12.11781
387.458	54.2728
387.672	-4.74153
387.887	41.62532
388.101	-46.88306
388.315	20.54805
388.529	37.40968
388.743	-13.17063
388.957	62.70491
389.171	20.54805
389.385	-55.31017
389.599	71.13739
389.813	-53.20343
390.027	50.05688
390.241	28.97868
390.455	16.33288
390.669	20.54805
390.883	12.11781
391.097	45.84105
391.311	39.51749
391.525	28.97868
391.738	20.54805
391.952	16.33288
392.166	45.84105
392.38	35.30189
392.594	28.97868
392.808	-51.09666
393.022	66.92111
393.236	28.97868
393.449	12.11781
393.663	104.87091
393.877	-38.45555
394.091	10.01031
394.305	20.54805
394.518	20.54805
394.732	66.92111
394.946	-11.06339
395.16	18.44046
395.373	62.70491
395.587	-72.16318
395.801	5.79537
396.015	-17.38502
396.228	-72.16318
396.442	3.68794
396.656	18.44046
396.869	12.11781
397.083	-93.22713
397.297	-21.59933
397.51	-36.3486
397.724	-53.20343
397.938	-27.92059
398.151	-2.6342
398.365	-19.49219
398.578	-21.59933
398.792	79.57023
399.005	69.02924
399.219	-38.45555
399.433	-42.66935
399.646	39.51749
399.86	33.19413
400.073	37.40968
400.287	-30.02763
400.5	-21.59933
400.714	-25.81353
400.927	-2.6342
401.141	3.68794
401.354	24.76332
401.567	-2.6342
401.781	14.22533
401.994	-25.81353
402.208	20.54805
402.421	-4.74153
402.635	14.22533
402.848	35.30189
403.061	-4.74153
403.275	20.54805
403.488	5.79537
403.701	-27.92059
403.915	24.76332
404.128	50.05688
404.341	-27.92059
404.555	7.90283
404.768	50.05688
404.981	-11.06339
405.195	-0.52684
405.408	31.08639
405.621	-30.02763
405.834	14.22533
406.048	-17.38502
406.261	-55.31017
406.474	-0.52684
406.687	83.78679
406.9	54.2728
407.114	79.57023
407.327	-78.48264
407.54	16.33288
407.753	-4.74153
407.966	3.68794
408.179	20.54805
408.392	12.11781
408.605	-4.74153
408.819	26.87099
409.032	-46.88306
409.245	79.57023
409.458	28.97868
409.671	-70.05664
409.884	3.68794
410.097	12.11781
410.31	3.68794
410.523	7.90283
410.736	33.19413
410.949	-11.06339
411.162	-13.17063
411.375	45.84105
411.588	31.08639
411.801	83.78679
412.014	1.58054
412.227	-17.38502
412.44	39.51749
412.653	-30.02763
412.865	24.76332
413.078	-32.13465
413.291	-36.3486
413.504	-65.84349
413.717	104.87091
413.93	-38.45555
414.143	-2.6342
414.356	-30.02763
414.568	5.79537
414.781	22.65567
414.994	-61.63024
415.207	3.68794
415.42	16.33288
415.632	-0.52684
415.845	62.70491
416.058	81.6785
416.271	64.813
416.483	28.97868
416.696	-11.06339
416.909	-11.06339
417.121	7.90283
417.334	-4.74153
417.547	31.08639
417.759	12.11781
417.972	62.70491
418.185	-42.66935
418.397	20.54805
418.61	-46.88306
418.823	-38.45555
419.035	54.2728
419.248	-30.02763
419.46	22.65567
419.673	45.84105
419.885	-38.45555
420.098	5.79537
420.311	-8.95613
420.523	54.2728
420.736	14.22533
420.948	-11.06339
421.161	66.92111
421.373	-30.02763
421.586	-23.70644
421.798	58.48881
422.01	-0.52684
422.223	45.84105
422.435	-53.20343
422.648	12.11781
422.86	-6.84884
423.073	85.8951
423.285	-55.31017
423.497	-38.45555
423.71	50.05688
423.922	41.62532
424.134	-34.24164
424.347	62.70491
424.559	96.437
424.771	-25.81353
424.984	24.76332
425.196	28.97868
425.408	-63.73688
425.621	-13.17063
425.833	12.11781
426.045	14.22533
426.257	7.90283
426.47	54.2728
426.682	-0.52684
426.894	33.19413
427.106	39.51749
427.318	-4.74153
427.531	33.19413
427.743	-30.02763
427.955	-21.59933
428.167	-4.74153
428.379	14.22533
428.591	-27.92059
428.804	14.22533
429.016	-13.17063
429.228	64.813
429.44	37.40968
429.652	79.57023
429.864	-42.66935
430.076	41.62532
430.288	12.11781
430.5	5.79537
430.712	-21.59933
430.924	39.51749
431.136	-30.02763
431.348	28.97868
431.56	71.13739
431.772	-30.02763
431.984	26.87099
432.196	37.40968
432.408	37.40968
432.62	7.90283
432.832	-4.74153
433.044	60.59685
433.256	-13.17063
433.468	-89.01455
433.679	-80.58907
433.891	37.40968
434.103	33.19413
434.315	12.11781
434.527	-8.95613
434.739	73.24557
434.95	3.68794
435.162	33.19413
435.374	109.088
435.586	-4.74153
435.798	-4.74153
436.009	-2.6342
436.221	45.84105
436.433	7.90283
436.645	24.76332
436.856	-40.56246
437.068	31.08639
437.28	62.70491
437.491	14.22533
437.703	62.70491
437.915	33.19413
438.126	20.54805
438.338	52.16483
438.55	-38.45555
438.761	3.68794
438.973	47.94895
439.184	81.6785
439.396	47.94895
439.608	96.437
439.819	45.84105
440.031	69.02924
440.242	3.68794
440.454	43.73317
440.665	62.70491
440.877	-30.02763
441.088	22.65567
441.3	62.70491
441.511	28.97868
441.723	10.01031
441.934	71.13739
442.146	-15.27784
442.357	41.62532
442.569	-44.77622
442.78	88.00344
442.991	-21.59933
443.203	-8.95613
443.414	22.65567
443.626	-8.95613
443.837	45.84105
444.048	85.8951
444.26	37.40968
444.471	96.437
444.682	-38.45555
444.894	-19.49219
445.105	64.813
445.316	-0.52684
445.528	79.57023
445.739	73.24557
445.95	64.813
446.161	5.79537
446.373	-17.38502
446.584	-8.95613
446.795	41.62532
447.006	24.76332
447.217	47.94895
447.429	-93.22713
447.64	64.813
447.851	22.65567
448.062	39.51749
448.273	28.97868
448.484	66.92111
448.695	79.57023
448.907	12.11781
449.118	-21.59933
449.329	7.90283
449.54	-25.81353
449.751	64.813
449.962	14.22533
450.173	56.38079
450.384	14.22533
450.595	-61.63024
450.806	-13.17063
451.017	66.92111
451.228	-17.38502
451.439	66.92111
451.65	24.76332
451.861	-25.81353
452.072	-36.3486
452.283	33.19413
452.494	37.40968
452.705	20.54805
452.915	7.90283
453.126	1.58054
453.337	5.79537
453.548	31.08639
453.759	-21.59933
453.97	37.40968
454.181	41.62532
454.391	66.92111
454.602	14.22533
454.813	-11.06339
455.024	62.70491
455.235	71.13739
455.445	56.38079
455.656	54.2728
455.867	56.38079
456.078	28.97868
456.288	88.00344
456.499	37.40968
456.71	56.38079
456.921	75.35377
457.131	12.11781
457.342	14.22533
457.553	79.57023
457.763	-13.17063
457.974	28.97868
458.184	83.78679
458.395	-21.59933
458.606	-4.74153
458.816	71.13739
459.027	62.70491
459.237	5.79537
459.448	71.13739
459.659	130.17476
459.869	100.65391
460.08	37.40968
460.29	71.13739
460.501	75.35377
460.711	24.76332
460.922	54.2728
461.132	41.62532
461.343	94.32857
461.553	79.57023
461.764	37.40968
461.974	24.76332
462.184	77.46199
462.395	81.6785
462.605	81.6785
462.816	69.02924
463.026	96.437
463.236	88.00344
463.447	62.70491
463.657	83.78679
463.867	7.90283
464.078	22.65567
464.288	96.437
464.498	-11.06339
464.709	83.78679
464.919	98.54544
465.129	56.38079
465.339	64.813
465.55	20.54805
465.76	62.70491
465.97	100.65391
466.18	140.71894
466.391	115.4138
466.601	-17.38502
466.811	113.30518
467.021	134.39237
467.231	140.71894
467.441	138.61006
467.651	199.77609
467.862	54.2728
468.072	81.6785
468.282	157.59075
468.492	54.2728
468.702	140.71894
468.912	73.24557
469.122	155.4817
469.332	123.8485
469.542	115.4138
469.752	161.80891
469.962	157.59075
470.172	199.77609
470.382	168.13631
470.592	111.19658
470.802	174.4639
471.012	212.43327
471.222	149.15468
471.432	125.95723
471.642	214.54287
471.852	214.54287
472.062	147.04571
472.272	208.21413
472.482	214.54287
472.691	210.32369
472.901	147.04571
473.111	157.59075
473.321	258.84902
473.531	222.98148
473.741	193.44776
473.95	140.71894
474.16	225.09118
474.37	231.42039
474.58	284.17061
474.79	254.62902
474.999	208.21413
475.209	260.95905
475.419	284.17061
475.628	303.16355
475.838	227.2009
476.048	328.48976
476.258	347.4861
476.467	320.04741
476.677	347.4861
476.886	450.9345
477.096	328.48976
477.306	324.26855
477.515	480.4982
477.725	404.48342
477.935	334.82172
478.144	389.70517
478.354	450.9345
478.563	434.04231
478.773	450.9345
478.982	543.85871
479.192	461.49263
479.401	493.16926
479.611	543.85871
479.82	514.28887
480.03	537.52208
480.239	575.54369
480.449	613.56959
480.658	628.35855
480.868	619.90764
481.077	662.16415
481.287	649.48669
481.496	672.72903
481.705	744.57764
481.915	852.3727
482.124	744.57764
482.333	780.50655
482.543	835.46207
482.752	848.14499
482.961	920.02061
483.171	854.48657
483.38	755.14466
483.589	814.32458
483.799	873.51177
484.008	1074.36982
484.217	903.10786
484.426	1025.73564
484.636	913.67827
484.845	1076.48441
485.054	1057.45324
485.263	1197.02402
485.472	1203.36858
485.682	1249.89617
485.891	1139.92456
486.1	1211.82803
486.309	1156.84262
486.518	1355.64513
486.727	1139.92456
486.936	1232.97688
487.146	1271.04553
487.355	1493.12306
487.564	1469.85752
487.773	1501.58325
487.982	1524.8487
488.191	1664.4378
488.4	1503.69829
488.609	1524.8487
488.818	1539.65393
489.027	1683.47195
489.236	1465.62741
489.445	1744.80251
489.654	1689.81661
489.863	1791.32715
490.072	1609.44912
490.281	1837.84978
490.49	1694.04637
490.698	1901.28602
490.907	1778.6388
491.116	1930.88797
491.325	1778.6388
491.534	1962.60311
491.743	1937.2311
491.952	2119.043
492.16	1939.34547
492.369	2023.91509
492.578	1998.54527
492.787	2100.0186
492.996	2093.677
493.204	2269.10121
493.413	2277.55388
493.622	2286.00641
493.831	2343.05699
494.039	2400.10036
494.248	2307.13707
494.457	2535.28331
494.665	2338.83126
494.874	2581.74173
495.083	2336.71838
495.291	2560.62498
495.5	2495.15561
495.709	2594.41121
495.917	2427.56301
496.126	2590.1881
496.335	2484.59501
496.543	2636.63964
496.752	2666.19658
496.96	2655.64081
497.169	2691.52913
497.377	2913.10669
497.586	2742.18864
497.794	2708.41647
498.003	2816.05331
498.211	2870.91327
498.42	2839.26445
498.628	3115.55198
498.837	3005.91156
499.045	3026.99951
499.254	2826.60404
499.462	3105.01148
499.671	3235.68516
499.879	3088.14584
500.087	3214.61302
500.296	3277.82441
500.504	3214.61302
500.713	3313.63745
500.921	3334.70163
501.129	3303.10472
501.338	3090.2541
501.546	3442.1018
501.754	3048.08593
501.962	3425.25776
502.171	3372.61279
502.379	3530.51413
502.587	3385.24859
502.795	3599.95827
503.004	3391.56625
503.212	3772.42741
503.42	3652.55392
503.628	3719.85903
503.837	3450.5234
504.045	3547.35092
504.253	3604.16635
504.461	3703.03459
504.669	3688.3122
504.877	3711.44696
505.085	3770.32491
505.294	3848.10441
505.502	3562.08215
505.71	4116.96696
505.918	3824.98359
506.126	3982.57747
506.334	3728.27078
506.542	4125.36348
506.75	3879.62892
506.958	4024.58326
507.166	3780.83723
507.374	4182.03121
507.582	4114.86778
507.79	3984.67796
507.998	3879.62892
508.206	4194.62195
508.414	3938.46261
508.622	4194.62195
508.83	3965.77287
509.037	4182.03121
509.245	4108.5701
509.453	4278.54067
509.661	4372.9082
509.869	4402.25805
510.077	4203.01535
510.285	4486.09113
510.492	4395.96915
510.7	4555.22691
510.908	4425.31564
511.116	4425.31564
511.324	4278.54067
511.531	4341.45722
511.739	4475.61392
511.947	4611.77456
512.155	4458.84923
512.362	4613.8686
512.57	4507.04391
512.778	4714.35641
512.985	4670.39936
513.193	4504.94873
513.401	4630.62016
513.608	4772.95032
513.816	4651.55759
514.024	4860.80781
514.231	4595.02139
514.439	4795.96449
514.646	4630.62016
514.854	5055.20563
515.061	4881.72033
515.269	4789.68817
515.477	4852.44216
515.684	5138.75618
515.892	5119.96054
516.099	4944.44415
516.307	4906.81234
516.514	5115.78348
516.722	4992.51841
516.929	5153.37371
517.136	4850.35069
517.344	5063.56236
517.551	4844.07615
517.759	5107.42907
517.966	5199.30708
518.173	5211.8324
518.381	5230.61882
518.588	5472.5851
518.796	5266.09911
519.003	5330.78105
519.21	5337.0394
519.418	5622.61199
519.625	5305.74555
519.832	5539.2788
520.039	5412.12313
520.247	5680.92278
520.454	5412.12313
520.661	5687.16927
520.868	5599.69913
521.076	5785.00318
521.283	5595.53284
521.49	5705.90746
521.697	5720.48028
521.904	5697.57961
522.112	5449.65358
522.319	5874.46512
522.526	5712.1531
522.733	5845.34277
522.94	5839.10166
523.147	5776.67892
523.354	5762.11055
523.561	5868.22501
523.768	5897.34373
523.975	5874.46512
524.183	5782.92215
524.39	6152.97393
524.597	6144.66635
524.804	6260.93826
525.011	6231.87718
525.218	6186.20048
525.425	6250.55983
525.632	6321.12162
525.838	5918.13998
526.045	6289.99475
526.252	6319.04666
526.459	6484.96986
526.666	6117.66413
526.873	6327.34637
527.08	6443.50303
527.287	6460.09088
527.494	6273.39161
527.701	6654.88701
527.907	6414.47072
528.114	6484.96986
528.321	6306.59641
528.528	6551.29749
528.735	6428.98744
528.941	6766.69908
529.148	6555.44218
529.355	6543.00783
529.562	6547.15271
529.768	6683.88175
529.975	6547.15271
530.182	6870.16932
530.388	6545.08028
530.595	6857.75589
530.802	6841.20339
531.008	7035.60378
531.215	6764.62909
531.422	6915.67821
531.628	6855.68691
531.835	6911.54149
532.042	6967.37957
532.248	7229.80588
532.455	6890.85654
532.661	7157.51957
532.868	7033.53674
533.074	7213.28569
533.281	7029.40259
533.487	7163.71661
533.694	7167.84785
533.9	7405.24603
534.107	7359.85316
534.313	7339.21655
534.52	7271.10019
534.726	7337.15277
534.933	7403.18295
535.139	7578.46784
535.345	7460.94108
535.552	7576.40657
535.758	7205.02506
535.965	7539.30001
536.171	7399.05671
536.377	7545.48492
536.584	7487.75158
536.79	7658.84083
536.996	7576.40657
537.203	7807.13726
537.409	7671.20303
537.615	7800.96041
537.821	7788.60615
538.028	8134.24514
538.234	7850.36995
538.44	7856.5453
538.646	7700.04522
538.853	7889.47736
539.059	7765.95472
539.265	7840.07728
539.471	8037.60652
539.677	7963.5552
539.883	7930.635
540.09	8047.88934
540.296	7790.66525
540.502	8210.29121
540.708	7897.70955
540.914	8121.91077
541.12	8115.74331
541.326	8341.76646
541.532	8255.49491
541.738	8335.60535
541.944	7951.21074
542.15	8419.79207
542.356	8333.5516
542.562	8661.90641
542.768	8378.72944
542.974	8518.31106
543.18	8368.46258
543.386	8604.4793
543.592	8672.15972
543.798	8393.10224
544.004	8505.99859
544.21	8819.75637
544.415	8528.57093
544.621	8764.41874
544.827	8475.21442
545.033	9008.2159
545.239	8631.14371
545.445	8739.81997
545.651	8743.91995
545.856	9088.06131
546.062	8799.26249
546.268	8914.00498
546.474	8600.3768
546.679	8532.67474
546.885	8776.71713
547.091	8834.101
547.297	8971.35521
547.502	9071.68492
547.708	8789.01487
547.914	9137.18386
548.119	8940.6336
548.325	9030.73908
548.531	8844.34663
548.736	9128.99746
548.942	8793.11398
549.147	8952.92272
549.353	9169.92674
549.559	9255.85612
549.764	9079.87325
549.97	9214.94109
550.175	9047.11825
550.381	9515.51232
550.586	9188.34269
550.792	9589.0683
550.997	9454.19989
551.203	9388.78397
551.408	9264.03833
551.614	9335.62122
551.819	9225.17048
552.025	9399.0063
552.23	9335.62122
552.435	9572.7243
552.641	9513.4688
552.846	9533.90324
553.052	9497.1201
553.257	9660.56155
553.462	9556.37928
553.668	9717.74248
553.873	9564.55192
554.078	9754.49532
554.283	9515.51232
554.489	9876.96947
554.694	9709.57452
554.899	9717.74248
555.105	9687.11134
555.31	10013.66947
555.515	10066.6998
555.72	10056.50241
555.925	10162.5381
556.131	10150.30514
556.336	9815.73913
556.541	10029.98752
556.746	10003.47023
556.951	10070.77866
557.156	10056.50241
557.361	10093.21137
557.567	10178.84794
557.772	10427.46561
557.977	10254.26951
558.182	10205.34955
558.387	10207.38804
558.592	10427.46561
558.797	10207.38804
559.002	10290.95436
559.207	10278.72657
559.412	10111.56413
559.617	10264.46019
559.822	10578.1716
560.027	10437.65066
560.232	10531.338
560.437	10231.84884
560.642	10256.30768
560.847	10382.64754
561.051	10468.20386
561.256	10419.31734
561.461	10659.60567
561.666	10464.13026
561.871	10681.99659
562.076	10861.07182
562.281	10631.10599
562.485	10496.71757
562.69	10496.71757
562.895	10350.0486
563.1	10710.49201
563.305	10425.42856
563.509	10570.02711
563.714	10547.6287
563.919	10594.46
564.123	10586.3159
564.328	10970.91428
564.533	10610.7476
564.737	10641.28472
564.942	10765.44079
565.147	10920.06541
565.351	10745.09041
565.556	10950.57558
565.761	10848.86504
565.965	10983.11697
566.17	10857.00294
566.374	10771.54568
566.579	10818.34626
566.784	11025.8232
566.988	11286.02499
567.193	11092.9232
567.397	10958.7112
567.602	11147.81444
567.806	10993.28556
568.011	11204.7305
568.215	11261.63837
568.42	11292.12142
568.624	11290.08928
568.828	11125.45228
569.033	11050.22458
569.237	11444.50276
569.442	11355.11248
569.646	11279.92847
569.85	11277.89628
570.055	11495.28431
570.259	11214.89322
570.463	11590.7376
570.668	11462.78481
570.872	11180.33891
571.076	11456.69088
571.281	11586.67617
571.485	11397.77839
571.689	11586.67617
571.893	11328.69805
572.098	11643.53276
572.302	11667.89768
572.506	11667.89768
572.71	11503.4088
572.914	11842.47584
573.119	11477.00364
573.323	11706.47284
573.527	11586.67617
573.731	12061.62571
573.935	11846.53504
574.139	11903.36033
574.343	11797.82241
574.547	11909.44837
574.751	11580.58397
574.955	12150.88262
575.159	11818.11993
575.364	11830.29804
575.568	11998.73118
575.772	12094.08448
575.976	11757.22478
