Data from mixed_try1_USB4F045381__5__00153.txt Node

Date: Thu Apr 03 20:07:27 EDT 2025
User: mmckonesweet
Spectrometer: USB4F04538
Trigger mode: 4
Integration Time (sec): 2.700000E-3
Scans to average: 1
Electric dark correction enabled: true
Nonlinearity correction enabled: true
Boxcar width: 0
XAxis mode: Wavelengths
Number of Pixels in Spectrum: 3648
>>>>>Begin Spectral Data<<<<<
345.52	24.58768
345.736	24.58768
345.952	24.58768
346.168	-9.13173
346.384	16.15725
346.6	24.58768
346.816	-95.5089
347.032	28.80304
347.248	37.23403
347.464	-38.63112
347.68	-7.02445
347.896	30.91075
348.112	-19.66778
348.328	35.12624
348.544	14.04971
348.76	68.85356
348.975	-78.65817
349.191	-40.73804
349.407	-28.09618
349.623	-11.23899
349.839	37.23403
350.055	-19.66778
350.27	33.01848
350.486	-44.95179
350.702	-19.66778
350.918	-4.91714
351.133	-53.37899
351.349	-17.56062
351.565	49.88122
351.781	30.91075
351.996	-32.31023
352.212	81.50281
352.428	47.77329
352.644	-17.56062
352.859	-72.33872
353.075	-34.41722
353.291	-40.73804
353.506	-19.66778
353.722	-2.80981
353.938	-36.52418
354.153	-47.05863
354.369	-25.98912
354.584	-40.73804
354.8	-36.52418
355.016	-13.34623
355.231	-36.52418
355.447	-57.59244
355.662	-11.23899
355.878	66.74543
356.093	5.61975
356.309	22.48004
356.524	-15.45344
356.74	-19.66778
356.955	9.83468
357.171	24.58768
357.386	-11.23899
357.602	-21.77492
357.817	-28.09618
358.033	-36.52418
358.248	-53.37899
358.464	-30.20322
358.679	-19.66778
358.895	-36.52418
359.11	-4.91714
359.325	-19.66778
359.541	62.52924
359.756	-84.97739
359.972	-7.02445
360.187	18.26482
360.402	-17.56062
360.618	-15.45344
360.833	-13.34623
361.048	35.12624
361.264	60.42118
361.479	22.48004
361.694	24.58768
361.909	-9.13173
362.125	49.88122
362.34	9.83468
362.555	-59.69913
362.77	18.26482
362.986	47.77329
363.201	39.34183
363.416	-59.69913
363.631	9.83468
363.847	56.20513
364.062	47.77329
364.277	14.04971
364.492	-4.91714
364.707	47.77329
364.922	24.58768
365.138	35.12624
365.353	35.12624
365.568	30.91075
365.783	14.04971
365.998	-23.88203
366.213	70.96171
366.428	41.44967
366.643	60.42118
366.858	16.15725
367.073	-9.13173
367.288	30.91075
367.503	14.04971
367.718	-82.87101
367.933	-53.37899
368.148	-87.08375
368.363	-68.12563
368.578	-49.16544
368.793	-40.73804
369.008	-2.80981
369.223	-0.70246
369.438	-47.05863
369.653	-40.73804
369.868	7.72721
370.083	-34.41722
370.298	37.23403
370.513	-25.98912
370.728	24.58768
370.943	41.44967
371.157	-4.91714
371.372	-23.88203
371.587	-76.55171
371.802	18.26482
372.017	39.34183
372.232	-19.66778
372.446	5.61975
372.661	37.23403
372.876	-17.56062
373.091	-87.08375
373.306	30.91075
373.52	9.83468
373.735	-28.09618
373.95	56.20513
374.165	-25.98912
374.379	-11.23899
374.594	-2.80981
374.809	-47.05863
375.023	35.12624
375.238	14.04971
375.453	28.80304
375.667	5.61975
375.882	56.20513
376.097	22.48004
376.311	47.77329
376.526	73.06989
376.741	-34.41722
376.955	22.48004
377.17	14.04971
377.384	51.98916
377.599	7.72721
377.813	-36.52418
378.028	64.63732
378.242	-15.45344
378.457	22.48004
378.672	-32.31023
378.886	-11.23899
379.101	-28.09618
379.315	41.44967
379.53	-17.56062
379.744	18.26482
379.958	-51.27223
380.173	-0.70246
380.387	-11.23899
380.602	-2.80981
380.816	14.04971
381.031	49.88122
381.245	20.37242
381.459	24.58768
381.674	60.42118
381.888	7.72721
382.103	-28.09618
382.317	-68.12563
382.531	-4.91714
382.746	16.15725
382.96	-4.91714
383.174	39.34183
383.388	47.77329
383.603	-17.56062
383.817	54.09713
384.031	64.63732
384.246	22.48004
384.46	26.69535
384.674	35.12624
384.888	26.69535
385.103	5.61975
385.317	47.77329
385.531	-49.16544
385.745	-53.37899
385.959	-32.31023
386.174	56.20513
386.388	106.80373
386.602	-51.27223
386.816	-78.65817
387.03	-19.66778
387.244	73.06989
387.458	-28.09618
387.672	24.58768
387.887	33.01848
388.101	-0.70246
388.315	54.09713
388.529	1.40492
388.743	-61.80579
388.957	33.01848
389.171	20.37242
389.385	14.04971
389.599	22.48004
389.813	33.01848
390.027	28.80304
390.241	7.72721
390.455	14.04971
390.669	5.61975
390.883	1.40492
391.097	43.55752
391.311	-36.52418
391.525	24.58768
391.738	-0.70246
391.952	14.04971
392.166	-7.02445
392.38	-2.80981
392.594	26.69535
392.808	28.80304
393.022	22.48004
393.236	11.94218
393.449	7.72721
393.663	30.91075
393.877	51.98916
394.091	20.37242
394.305	-9.13173
394.518	18.26482
394.732	49.88122
394.946	85.71941
395.16	47.77329
395.373	-30.20322
395.587	-2.80981
395.801	-11.23899
396.015	33.01848
396.228	14.04971
396.442	-0.70246
396.656	47.77329
396.869	-19.66778
397.083	51.98916
397.297	64.63732
397.51	-28.09618
397.724	47.77329
397.938	20.37242
398.151	24.58768
398.365	-7.02445
398.578	-19.66778
398.792	1.40492
399.005	1.40492
399.219	119.45538
399.433	16.15725
399.646	9.83468
399.86	-11.23899
400.073	-2.80981
400.287	89.9361
400.5	26.69535
400.714	-44.95179
400.927	22.48004
401.141	-55.48573
401.354	-2.80981
401.567	81.50281
401.781	35.12624
401.994	9.83468
402.208	39.34183
402.421	119.45538
402.635	47.77329
402.848	-36.52418
403.061	7.72721
403.275	1.40492
403.488	66.74543
403.701	37.23403
403.915	98.36974
404.128	30.91075
404.341	11.94218
404.555	14.04971
404.768	98.36974
404.981	-7.02445
405.195	-17.56062
405.408	14.04971
405.621	51.98916
405.834	39.34183
406.048	22.48004
406.261	9.83468
406.474	5.61975
406.687	64.63732
406.9	9.83468
407.114	75.17808
407.327	43.55752
407.54	41.44967
407.753	5.61975
407.966	16.15725
408.179	60.42118
408.392	85.71941
408.605	-61.80579
408.819	39.34183
409.032	26.69535
409.245	47.77329
409.458	-2.80981
409.671	5.61975
409.884	73.06989
410.097	39.34183
410.31	68.85356
410.523	51.98916
410.736	49.88122
410.949	81.50281
411.162	14.04971
411.375	-2.80981
411.588	24.58768
411.801	22.48004
412.014	43.55752
412.227	5.61975
412.44	100.4782
412.653	22.48004
412.865	7.72721
413.078	-36.52418
413.291	98.36974
413.504	24.58768
413.717	83.6111
413.93	-44.95179
414.143	35.12624
414.356	3.51233
414.568	66.74543
414.781	22.48004
414.994	75.17808
415.207	35.12624
415.42	66.74543
415.632	83.6111
415.845	68.85356
416.058	41.44967
416.271	81.50281
416.483	39.34183
416.696	123.67278
416.909	-53.37899
417.121	43.55752
417.334	92.04447
417.547	47.77329
417.759	30.91075
417.972	77.2863
418.185	111.02086
418.397	43.55752
418.61	49.88122
418.823	51.98916
419.035	127.89025
419.248	35.12624
419.46	-19.66778
419.673	132.10782
419.885	14.04971
420.098	81.50281
420.311	64.63732
420.523	81.50281
420.736	104.6952
420.948	26.69535
421.161	98.36974
421.373	41.44967
421.586	30.91075
421.798	83.6111
422.01	47.77329
422.223	165.85139
422.435	132.10782
422.648	41.44967
422.86	170.06972
423.073	-7.02445
423.285	47.77329
423.497	66.74543
423.71	39.34183
423.922	98.36974
424.134	85.71941
424.347	51.98916
424.559	41.44967
424.771	-2.80981
424.984	77.2863
425.196	106.80373
425.408	125.7815
425.621	77.2863
425.833	83.6111
426.045	49.88122
426.257	66.74543
426.47	123.67278
426.682	174.28813
426.894	26.69535
427.106	81.50281
427.318	129.99903
427.531	125.7815
427.743	89.9361
427.955	102.58669
428.167	81.50281
428.379	58.31314
428.591	94.15287
428.804	89.9361
429.016	153.19692
429.228	100.4782
429.44	106.80373
429.652	170.06972
429.864	102.58669
430.076	140.5432
430.288	161.63315
430.5	108.91229
430.712	140.5432
430.924	108.91229
431.136	167.96055
431.348	159.52406
431.56	75.17808
431.772	140.5432
431.984	111.02086
432.196	167.96055
432.408	123.67278
432.62	193.27198
432.832	125.7815
433.044	229.13482
433.256	132.10782
433.468	218.58633
433.679	174.28813
433.891	180.61589
434.103	182.72519
434.315	195.3814
434.527	250.23327
434.739	227.02509
434.95	197.49084
435.162	216.47669
435.374	275.55393
435.586	252.34322
435.798	201.70978
436.009	197.49084
436.221	233.35436
436.433	288.21528
436.645	233.35436
436.856	218.58633
437.068	208.03833
437.28	220.69599
437.491	309.31899
437.703	235.46415
437.915	208.03833
438.126	258.67319
438.338	269.22351
438.55	321.98209
438.761	218.58633
438.973	269.22351
439.184	292.43587
439.396	343.08867
439.608	250.23327
439.819	359.9752
440.031	288.21528
440.242	343.08867
440.454	317.76099
440.665	343.08867
440.877	252.34322
441.088	393.75151
441.3	359.9752
441.511	395.86267
441.723	246.01343
441.934	328.31388
442.146	302.98769
442.357	414.86386
442.569	387.41813
442.78	343.08867
442.991	414.86386
443.203	404.30748
443.414	461.31665
443.626	368.41887
443.837	452.87013
444.048	397.97385
444.26	343.08867
444.471	402.19626
444.682	482.43403
444.894	482.43403
445.105	421.19789
445.316	429.64347
445.528	389.52924
445.739	467.65171
445.95	387.41813
446.161	431.75491
446.373	473.9869
446.584	469.76342
446.795	499.329
447.006	452.87013
447.217	454.98174
447.429	550.01944
447.64	488.76953
447.851	469.76342
448.062	630.29525
448.273	368.41887
448.484	562.6933
448.695	518.33696
448.907	562.6933
449.118	617.61889
449.329	419.08653
449.54	719.04176
449.751	448.64696
449.962	531.00957
450.173	554.24401
450.384	693.68355
450.595	740.1748
450.806	569.03042
451.017	503.55289
451.228	609.16823
451.439	740.1748
451.65	590.155
451.861	613.39353
452.072	659.87514
452.283	757.08198
452.494	636.6336
452.705	740.1748
452.915	833.17213
453.126	816.26215
453.337	630.29525
453.548	674.66595
453.759	790.89829
453.97	917.73031
454.181	833.17213
454.391	816.26215
454.602	919.84443
454.813	879.67749
455.024	993.84318
455.235	894.4755
455.445	945.21445
455.656	921.95856
455.867	945.21445
456.078	970.58551
456.288	822.60332
456.499	1010.75834
456.71	1002.30071
456.921	921.95856
457.131	1074.1936
457.342	932.52931
457.553	1078.42279
457.763	979.04275
457.974	1133.40413
458.184	1146.09257
458.395	1315.28371
458.606	1222.22617
458.816	1344.89378
459.027	1289.90392
459.237	1203.19234
459.448	1450.64579
459.659	1351.23884
459.869	1338.54874
460.08	1463.33611
460.29	1495.06186
460.501	1556.39787
460.711	1586.008
460.922	1387.19436
461.132	1609.27288
461.343	1700.21475
461.553	1588.123
461.764	1774.23309
461.974	1497.1769
462.184	1560.62791
462.395	1738.28187
462.605	1772.11834
462.816	1763.65931
463.026	1814.41251
463.236	1693.87013
463.447	1837.67356
463.657	2021.6248
463.867	2228.77291
464.078	1871.50679
464.288	2008.93996
464.498	2228.77291
464.709	2290.05653
464.919	2148.45911
465.129	2414.71212
465.339	2154.80011
465.55	2412.59961
465.76	2283.7172
465.97	2338.65519
466.18	2357.67065
466.391	2642.79754
466.601	2298.50883
466.811	2587.90056
467.021	2693.46418
467.231	2796.88527
467.441	2503.42789
467.651	2853.85847
467.862	2915.04042
468.072	2923.47836
468.282	2853.85847
468.492	2847.52862
468.702	3157.53436
468.912	3208.11544
469.122	3132.2403
469.332	3380.86123
469.542	3435.60996
469.752	3473.50587
469.962	3507.18621
470.172	3688.13693
470.382	3614.51091
470.592	3793.27617
470.802	3683.93035
471.012	3774.35469
471.222	3633.44553
471.432	3833.21628
471.642	3839.52196
471.852	4280.46341
472.062	4026.50833
472.272	4297.24289
472.482	4183.95484
472.691	4557.147
472.901	4183.95484
473.111	4301.43755
473.321	4477.53478
473.531	4845.99339
473.741	4749.75902
473.95	5163.6401
474.16	4525.72494
474.37	5224.18294
474.58	4988.16436
474.79	5322.26241
474.999	5188.69469
475.209	5171.992
475.419	5514.09781
475.628	5597.4424
475.838	5105.16636
476.048	5670.33797
476.258	5607.85782
476.467	5909.64847
476.677	5853.49056
476.886	6256.61398
477.096	6210.94343
477.306	6154.87769
477.515	5969.94706
477.725	6167.33823
477.935	6432.96206
478.144	6443.33023
478.354	6441.25665
478.563	6830.6849
478.773	6859.65244
478.982	6789.29494
479.192	6892.75276
479.401	7103.63136
479.611	7140.82101
479.82	7163.54447
480.03	7312.21368
480.239	7386.50556
480.449	7283.31473
480.658	7664.85033
480.868	7603.02969
481.077	7872.84047
481.287	7582.41855
481.496	7998.35575
481.705	7821.37761
481.915	8097.06852
482.124	8171.07265
482.333	8138.18513
482.543	8064.16945
482.752	8419.62099
482.961	8458.62339
483.171	8536.6075
483.38	8419.62099
483.589	8442.20217
483.799	8954.80017
484.008	8909.73729
484.217	8973.23251
484.426	9085.84374
484.636	9188.17218
484.845	9558.2522
485.054	9402.92476
485.263	9578.68317
485.472	9353.85457
485.682	9887.00317
485.891	9880.88095
486.1	9956.37903
486.309	10007.37998
486.518	10117.51155
486.727	9989.02068
486.936	10404.8876
487.146	10066.52985
487.355	10433.40693
487.564	10512.84028
487.773	10781.55067
487.982	10474.14442
488.191	10781.55067
488.4	10934.13431
488.609	10846.66099
488.818	11080.55465
489.027	11149.67789
489.236	11291.95207
489.445	11462.61553
489.654	11391.51423
489.863	11592.59907
490.072	11369.16562
490.281	11629.15007
490.49	11856.51377
490.698	11653.51576
490.907	11612.90555
491.116	12065.51411
491.325	12120.28674
491.534	12489.35674
491.743	12223.73119
491.952	12268.3484
492.16	12126.37225
492.369	12448.81074
492.578	12341.35097
492.787	12463.00214
492.996	12685.96891
493.204	12690.02216
493.413	12874.42106
493.622	12878.47327
493.831	12665.70227
494.039	12862.26431
494.248	12900.76003
494.457	13429.39214
494.665	13222.83702
494.874	13439.51631
495.083	13409.14351
495.291	13403.06885
495.5	13490.13571
495.709	13346.37025
495.917	13338.27019
496.126	13522.5309
496.335	13603.51485
496.543	13818.09658
496.752	13664.24918
496.96	13757.36947
497.169	14117.64797
497.377	14077.17119
497.586	13953.71123
497.794	14287.64128
498.003	14056.93247
498.211	14214.78872
498.42	14226.93098
498.628	14617.47531
498.837	14271.45203
499.045	14744.94843
499.254	14611.40507
499.462	14708.52791
499.671	14997.86261
499.879	15121.28246
500.087	15188.05039
500.296	15475.35705
500.504	14902.76788
500.713	15192.09693
500.921	15046.42133
501.129	15125.329
501.338	15149.60825
501.546	15797.07335
501.754	15372.16868
501.962	15457.14725
502.171	15655.43462
502.379	15513.80012
502.587	15608.89716
502.795	15750.53438
503.004	15349.91251
503.212	16128.93549
503.42	15918.48219
503.628	16290.8342
503.837	15760.6515
504.045	16191.66995
504.253	16159.29068
504.461	15752.5578
504.669	16280.7152
504.877	16056.08449
505.085	16278.69141
505.294	16217.97842
505.502	16539.77669
505.71	16930.46101
505.918	16711.82882
506.126	16934.51004
506.334	16784.70301
506.542	16914.26503
506.75	16586.33037
506.958	16695.63497
507.166	16948.6817
507.374	16997.27124
507.582	16970.95171
507.79	17141.02445
507.998	17106.6034
508.206	17436.67531
508.414	16906.1671
508.622	17483.25634
508.83	17359.71893
509.037	17060.03502
509.245	17153.17326
509.453	17460.97825
509.661	17327.31757
509.869	17770.88136
510.077	17627.0606
510.285	17546.04212
510.492	17460.97825
510.7	17926.87532
510.908	17732.39247
511.116	17774.9329
511.324	17926.87532
511.531	17841.78517
511.739	17981.57938
511.947	18269.32532
512.155	18022.10257
512.362	18064.65346
512.57	18161.9186
512.778	18013.99782
512.985	18261.21879
513.193	18095.04792
513.401	18222.71358
513.608	18439.5763
513.816	18498.35964
514.024	18609.85417
514.231	18542.95605
514.439	18630.12716
514.646	18494.30551
514.854	18585.52709
515.061	18474.03511
515.269	18786.24235
515.477	18634.18181
515.684	18770.0215
515.892	18767.99391
516.099	18638.23647
516.307	19053.92329
516.514	18997.13662
516.722	18814.62945
516.929	19041.75445
517.136	19049.86699
517.344	19161.42105
517.551	18946.43692
517.759	19279.07329
517.966	19130.996
518.173	19390.65285
518.381	19228.35942
518.588	19676.75966
518.796	19510.36123
519.003	20036.03281
519.21	20015.73138
519.418	19908.14084
519.625	19542.82701
519.832	19764.02861
520.039	19506.30308
520.247	20023.8519
520.454	20050.24406
520.661	20385.28318
520.868	20196.42887
521.076	20651.36525
521.283	19906.11094
521.49	20464.49095
521.697	20340.60469
521.904	20444.18065
522.112	20454.33575
522.319	20561.98617
522.526	20247.19259
522.733	21035.38037
522.94	20661.52247
523.147	20787.48069
523.354	20606.6747
523.561	20836.24299
523.768	20998.80115
523.975	21364.65264
524.183	21086.18703
524.39	21445.97073
524.597	21244.72019
524.804	21143.09352
525.011	21360.58691
525.218	21454.10289
525.425	21506.96348
525.632	21437.83863
525.838	21500.86404
526.045	21252.85076
526.252	21313.83209
526.459	21931.97773
526.666	21818.08167
526.873	21899.43477
527.08	21948.24957
527.287	21667.59476
527.494	21413.44273
527.701	22153.70249
527.907	22033.68076
528.114	22029.61246
528.321	21997.06657
528.528	22210.66651
528.735	22314.42986
528.941	22208.63203
529.148	22285.94485
529.355	22428.37706
529.562	21818.08167
529.768	22426.34219
529.975	21781.47479
530.182	22351.0545
530.388	22532.16027
530.595	22835.42275
530.802	22497.56483
531.008	22990.13646
531.215	23065.46464
531.422	23051.21302
531.628	22863.92117
531.835	23185.59191
532.042	22863.92117
532.248	23234.46049
532.455	22961.6351
532.661	23356.64004
532.868	23140.79736
533.074	23212.06216
533.281	23446.24563
533.487	23623.438
533.694	23533.82057
533.9	23759.91213
534.107	23450.31876
534.313	24173.4879
534.52	24228.50418
534.726	24053.27407
534.933	24244.80568
535.139	24036.97464
535.345	23908.62289
535.552	23943.25638
535.758	23898.43673
535.965	24030.86239
536.171	24281.48469
536.377	24607.55758
536.584	24293.71122
536.79	24670.74173
536.996	24809.34745
537.203	24230.54186
537.409	24334.467
537.615	24322.24015
537.821	24393.56476
538.028	24921.46311
538.234	24668.70349
538.44	24799.15547
538.646	24579.02359
538.853	24905.15493
539.059	24556.60437
539.265	24886.80841
539.471	24819.53948
539.677	25031.54715
539.883	25210.95747
540.09	25225.22948
540.296	25335.33138
540.502	25196.68557
540.708	25288.43537
540.914	25451.55674
541.12	25349.60431
541.326	25763.56257
541.532	25769.68079
541.738	26193.91754
541.944	25769.68079
542.15	25885.93016
542.356	25567.78878
542.562	26142.92348
542.768	25961.39349
542.974	26310.18797
543.18	25839.02179
543.386	26416.26394
543.592	26253.07199
543.798	26397.90432
544.004	26216.35526
544.21	26200.0369
544.415	25908.36494
544.621	26338.74645
544.827	26246.95249
545.033	26595.78699
545.239	26324.46717
545.445	27011.99912
545.651	26597.8271
545.856	26718.19596
546.062	26824.28808
546.268	26322.42727
546.474	26583.5464
546.679	26116.40699
546.885	26501.94387
547.091	26703.91463
547.297	26389.74453
547.502	26724.31655
547.708	26767.16106
547.914	26916.10176
548.119	27267.06005
548.325	26985.47401
548.531	26495.82378
548.736	27067.09049
548.942	26909.98076
549.147	26738.59798
549.353	27334.39961
549.559	27726.22057
549.764	27287.46583
549.97	27334.39961
550.175	27389.49665
550.381	27634.38347
550.586	27199.72193
550.792	27993.58211
550.997	28071.14105
551.203	27685.40378
551.408	27607.85321
551.614	27736.42484
551.819	28193.6058
552.025	28246.67509
552.23	28228.30487
552.435	28226.26374
552.641	28258.92196
552.846	28360.98069
553.052	28395.68127
553.257	28350.77469
553.462	28593.68461
553.668	28352.81589
553.873	28450.7946
554.078	29077.50746
554.283	28869.27274
554.489	28848.85815
554.694	28934.60012
554.899	28520.19767
555.105	28616.13922
555.31	28877.4386
555.515	29001.97009
555.72	29218.37825
555.925	28750.86958
556.131	28736.57978
556.336	28399.76371
556.541	29177.54563
556.746	29118.33906
556.951	29038.71782
557.156	29053.0087
557.361	29416.42239
557.567	29298.00306
557.772	29440.92338
557.977	29183.67049
558.182	29300.04474
558.387	29240.83637
558.592	29463.38276
558.797	29587.93254
559.002	29922.80762
559.207	29796.20504
559.412	29483.80048
559.617	29487.88404
559.822	29491.9676
560.027	29349.04544
560.232	29638.97868
560.437	29328.62841
560.642	29375.58774
560.847	29555.26336
561.051	29792.12116
561.256	29514.42727
561.461	30114.76171
561.666	29930.97567
561.871	29745.15681
562.076	30210.74257
562.281	29930.97567
562.485	29963.64807
562.69	29926.89164
562.895	30065.75119
563.1	29922.80762
563.305	30143.35148
563.509	29937.10173
563.714	29790.07922
563.919	30067.79329
564.123	30370.03576
564.328	30265.8817
564.533	30694.77214
564.737	30284.2616
564.942	30028.99374
565.147	30533.42111
565.351	30198.48955
565.556	30157.64646
565.761	30517.08222
565.965	30923.53721
566.17	30204.61606
566.374	30288.34603
566.579	30717.23938
566.784	30410.88135
566.988	30721.32436
567.193	30772.38695
567.397	30568.14154
567.602	31007.28592
567.806	30494.61637
568.011	30747.8768
568.215	30864.30174
568.42	30819.36527
568.624	31076.73791
568.828	31201.34723
569.033	31254.46111
569.237	31338.21975
569.442	31174.79068
