Data from mixed_try1_USB4F045381__23__00171.txt Node

Date: Thu Apr 03 20:12:02 EDT 2025
User: mmckonesweet
Spectrometer: USB4F04538
Trigger mode: 4
Integration Time (sec): 2.700000E-3
Scans to average: 1
Electric dark correction enabled: true
Nonlinearity correction enabled: true
Boxcar width: 0
XAxis mode: Wavelengths
Number of Pixels in Spectrum: 3648
>>>>>Begin Spectral Data<<<<<
345.52	-10.53658
345.736	-10.53658
345.952	-10.53658
346.168	31.61332
346.384	-14.75104
346.6	10.53718
346.816	-14.75104
347.032	35.82884
347.248	-63.21022
347.464	-10.53658
347.68	33.72107
347.896	33.72107
348.112	10.53718
348.328	-58.9969
348.544	10.53718
348.76	16.85977
348.975	-4.2147
349.191	-2.10736
349.407	-0
349.623	-44.2495
349.839	-25.28676
350.055	-25.28676
350.27	6.32224
350.486	31.61332
350.702	-6.32202
350.918	31.61332
351.133	-31.6079
351.349	2.10739
351.565	-42.14263
351.781	-18.9654
351.996	40.04444
352.212	4.2148
352.428	40.04444
352.644	25.29023
352.859	92.74727
353.075	69.55627
353.291	18.96735
353.506	65.34002
353.722	-10.53658
353.938	-126.39756
354.153	-18.9654
354.369	-14.75104
354.584	14.75222
354.8	-25.28676
355.016	-35.82187
355.231	-2.10736
355.447	48.47593
355.662	33.72107
355.878	59.01582
356.093	12.64469
356.309	-33.71489
356.524	-27.39383
356.74	-75.84956
356.955	31.61332
357.171	-8.42931
357.386	40.04444
357.602	23.18258
357.817	-27.39383
358.033	33.72107
358.248	-8.42931
358.464	31.61332
358.679	-18.9654
358.895	23.18258
359.11	-31.6079
359.325	27.39791
359.541	-2.10736
359.756	40.04444
359.972	-35.82187
360.187	-16.85823
360.402	16.85977
360.618	6.32224
360.833	-12.64382
361.048	16.85977
361.264	84.31387
361.479	-25.28676
361.694	-82.16888
361.909	23.18258
362.125	35.82884
362.34	-6.32202
362.555	-44.2495
362.77	35.82884
362.986	29.5056
363.201	8.4297
363.416	4.2148
363.631	-27.39383
363.847	6.32224
364.062	14.75222
364.277	-18.9654
364.492	14.75222
364.707	-18.9654
364.922	16.85977
365.138	-16.85823
365.353	25.29023
365.568	-10.53658
365.783	-63.21022
365.998	6.32224
366.213	14.75222
366.428	18.96735
366.643	-25.28676
366.858	115.94096
367.073	56.90779
367.288	56.90779
367.503	-42.14263
367.718	37.93663
367.933	56.90779
368.148	-27.39383
368.363	8.4297
368.578	-2.10736
368.793	-10.53658
369.008	40.04444
369.223	-25.28676
369.438	75.88082
369.653	-18.9654
369.868	-2.10736
370.083	65.34002
370.298	14.75222
370.513	69.55627
370.728	23.18258
370.943	-8.42931
371.157	77.98905
371.372	35.82884
371.587	31.61332
371.802	23.18258
372.017	-27.39383
372.232	27.39791
372.446	-42.14263
372.661	33.72107
372.876	35.82884
373.091	14.75222
373.306	-33.71489
373.52	-40.03573
373.735	-48.46317
373.95	50.58386
374.165	109.61514
374.379	23.18258
374.594	8.4297
374.809	-33.71489
375.023	63.23193
375.238	-18.9654
375.453	-54.78349
375.667	23.18258
375.882	-35.82187
376.097	14.75222
376.311	59.01582
376.526	40.04444
376.741	48.47593
376.955	-10.53658
377.17	-10.53658
377.384	48.47593
377.599	-12.64382
377.813	-2.10736
378.028	48.47593
378.242	8.4297
378.457	-33.71489
378.672	-31.6079
378.886	6.32224
379.101	82.20557
379.315	16.85977
379.53	-16.85823
379.744	-33.71489
379.958	-18.9654
380.173	-2.10736
380.387	-31.6079
380.602	52.69182
380.816	31.61332
381.031	8.4297
381.245	-6.32202
381.459	18.96735
381.674	-10.53658
381.888	40.04444
382.103	6.32224
382.317	-58.9969
382.531	14.75222
382.746	-33.71489
382.96	6.32224
383.174	14.75222
383.388	48.47593
383.603	2.10739
383.817	27.39791
384.031	-56.89021
384.246	25.29023
384.46	2.10739
384.674	8.4297
384.888	27.39791
385.103	71.66443
385.317	-10.53658
385.531	-2.10736
385.745	-18.9654
385.959	-31.6079
386.174	6.32224
386.388	23.18258
386.602	-25.28676
386.816	6.32224
387.03	-2.10736
387.244	65.34002
387.458	18.96735
387.672	-25.28676
387.887	16.85977
388.101	-8.42931
388.315	23.18258
388.529	8.4297
388.743	40.04444
388.957	40.04444
389.171	25.29023
389.385	-94.80682
389.599	33.72107
389.813	-6.32202
390.027	-10.53658
390.241	-14.75104
390.455	-40.03573
390.669	-18.9654
390.883	6.32224
391.097	-0
391.311	31.61332
391.525	2.10739
391.738	25.29023
391.952	8.4297
392.166	-25.28676
392.38	56.90779
392.594	40.04444
392.808	-4.2147
393.022	-65.31684
393.236	-16.85823
393.449	-4.2147
393.663	-2.10736
393.877	-0
394.091	40.04444
394.305	-77.95602
394.518	-10.53658
394.732	10.53718
394.946	40.04444
395.16	-27.39383
395.373	56.90779
395.587	-16.85823
395.801	-10.53658
396.015	-10.53658
396.228	-2.10736
396.442	-21.07254
396.656	-23.17966
396.869	-50.56997
397.083	23.18258
397.297	27.39791
397.51	-29.50088
397.724	35.82884
397.938	-56.89021
398.151	-10.53658
398.365	-23.17966
398.578	-58.9969
398.792	48.47593
399.005	23.18258
399.219	54.79979
399.433	-2.10736
399.646	-16.85823
399.86	69.55627
400.073	-27.39383
400.287	8.4297
400.5	-48.46317
400.714	42.15228
400.927	31.61332
401.141	14.75222
401.354	-48.46317
401.567	25.29023
401.781	42.15228
401.994	37.93663
402.208	56.90779
402.421	-31.6079
402.635	8.4297
402.848	31.61332
403.061	4.2148
403.275	-48.46317
403.488	-40.03573
403.701	-2.10736
403.915	77.98905
404.128	29.5056
404.341	23.18258
404.555	44.26014
404.768	18.96735
404.981	42.15228
405.195	-58.9969
405.408	-73.74306
405.621	-29.50088
405.834	37.93663
406.048	-44.2495
406.261	-18.9654
406.474	16.85977
406.687	65.34002
406.9	44.26014
407.114	52.69182
407.327	-8.42931
407.54	65.34002
407.753	-6.32202
407.966	10.53718
408.179	-50.56997
408.392	37.93663
408.605	-61.10358
408.819	-6.32202
409.032	-14.75104
409.245	23.18258
409.458	69.55627
409.671	-12.64382
409.884	14.75222
410.097	21.07496
410.31	40.04444
410.523	6.32224
410.736	-35.82187
410.949	23.18258
411.162	10.53718
411.375	33.72107
411.588	-71.63655
411.801	12.64469
412.014	63.23193
412.227	-52.67674
412.44	-35.82187
412.653	25.29023
412.865	65.34002
413.078	6.32224
413.291	21.07496
413.504	-33.71489
413.717	31.61332
413.93	48.47593
414.143	-8.42931
414.356	18.96735
414.568	-16.85823
414.781	-23.17966
414.994	44.26014
415.207	-67.42343
415.42	-10.53658
415.632	12.64469
415.845	-46.35635
416.058	-6.32202
416.271	-16.85823
416.483	-52.67674
416.696	42.15228
416.909	37.93663
417.121	6.32224
417.334	67.44814
417.547	96.96411
417.759	75.88082
417.972	42.15228
418.185	33.72107
418.397	6.32224
418.61	23.18258
418.823	-35.82187
419.035	-48.46317
419.248	-18.9654
419.46	8.4297
419.673	27.39791
419.885	23.18258
420.098	33.72107
420.311	23.18258
420.523	-69.53
420.736	48.47593
420.948	-65.31684
421.161	50.58386
421.373	80.0973
421.586	14.75222
421.798	6.32224
422.01	-21.07254
422.223	6.32224
422.435	-18.9654
422.648	8.4297
422.86	31.61332
423.073	-16.85823
423.285	-14.75104
423.497	6.32224
423.71	-54.78349
423.922	-10.53658
424.134	52.69182
424.347	33.72107
424.559	-0
424.771	8.4297
424.984	-31.6079
425.196	33.72107
425.408	-35.82187
425.621	4.2148
425.833	42.15228
426.045	-44.2495
426.257	94.85568
426.47	33.72107
426.682	-0
426.894	65.34002
427.106	44.26014
427.318	25.29023
427.531	-10.53658
427.743	48.47593
427.955	8.4297
428.167	-18.9654
428.379	23.18258
428.591	14.75222
428.804	-0
429.016	-31.6079
429.228	-10.53658
429.44	-16.85823
429.652	6.32224
429.864	6.32224
430.076	18.96735
430.288	-40.03573
430.5	16.85977
430.712	2.10739
430.924	-52.67674
431.136	16.85977
431.348	73.77262
431.56	-4.2147
431.772	16.85977
431.984	33.72107
432.196	-35.82187
432.408	-27.39383
432.62	-8.42931
432.832	31.61332
433.044	6.32224
433.256	31.61332
433.468	-10.53658
433.679	103.28953
433.891	14.75222
434.103	10.53718
434.315	42.15228
434.527	23.18258
434.739	21.07496
434.95	-52.67674
435.162	6.32224
435.374	120.15828
435.586	10.53718
435.798	77.98905
436.009	44.26014
436.221	16.85977
436.433	10.53718
436.645	65.34002
436.856	65.34002
437.068	6.32224
437.28	-0
437.491	-14.75104
437.703	29.5056
437.915	-10.53658
438.126	71.66443
438.338	-14.75104
438.55	-6.32202
438.761	-10.53658
438.973	-8.42931
439.184	92.74727
439.396	31.61332
439.608	-18.9654
439.819	48.47593
440.031	82.20557
440.242	-18.9654
440.454	-2.10736
440.665	-6.32202
440.877	16.85977
441.088	18.96735
441.3	-10.53658
441.511	42.15228
441.723	-25.28676
441.934	-71.63655
442.146	61.12386
442.357	56.90779
442.569	37.93663
442.78	-46.35635
442.991	-48.46317
443.203	59.01582
443.414	-75.84956
443.626	-10.53658
443.837	25.29023
444.048	-2.10736
444.26	80.0973
444.471	31.61332
444.682	-8.42931
444.894	-35.82187
445.105	37.93663
445.316	-16.85823
445.528	21.07496
445.739	-35.82187
445.95	90.63889
446.161	52.69182
446.373	48.47593
446.584	-2.10736
446.795	-27.39383
447.006	-14.75104
447.217	33.72107
447.429	-117.97394
447.64	-10.53658
447.851	54.79979
448.062	8.4297
448.273	18.96735
448.484	61.12386
448.695	-18.9654
448.907	2.10739
449.118	56.90779
449.329	6.32224
449.54	27.39791
449.751	44.26014
449.962	40.04444
450.173	6.32224
450.384	29.5056
450.595	27.39791
450.806	-61.10358
451.017	16.85977
451.228	92.74727
451.439	107.50658
451.65	59.01582
451.861	31.61332
452.072	-6.32202
452.283	14.75222
452.494	-86.38163
452.705	42.15228
452.915	-8.42931
453.126	-33.71489
453.337	-18.9654
453.548	-27.39383
453.759	-35.82187
453.97	33.72107
454.181	-10.53658
454.391	-61.10358
454.602	-0
454.813	-12.64382
455.024	109.61514
455.235	40.04444
455.445	35.82884
455.656	12.64469
455.867	18.96735
456.078	50.58386
456.288	-25.28676
456.499	-6.32202
456.71	61.12386
456.921	6.32224
457.131	2.10739
457.342	-6.32202
457.553	23.18258
457.763	56.90779
457.974	48.47593
458.184	25.29023
458.395	73.77262
458.606	65.34002
458.816	-14.75104
459.027	-44.2495
459.237	56.90779
459.448	10.53718
459.659	6.32224
459.869	42.15228
460.08	31.61332
460.29	44.26014
460.501	33.72107
460.711	16.85977
460.922	-29.50088
461.132	-27.39383
461.343	31.61332
461.553	27.39791
461.764	-12.64382
461.974	-10.53658
462.184	25.29023
462.395	48.47593
462.605	31.61332
462.816	23.18258
463.026	-6.32202
463.236	61.12386
463.447	10.53718
463.657	-16.85823
463.867	48.47593
464.078	35.82884
464.288	48.47593
464.498	25.29023
464.709	44.26014
464.919	-44.2495
465.129	25.29023
465.339	18.96735
465.55	61.12386
465.76	84.31387
465.97	23.18258
466.18	48.47593
466.391	65.34002
466.601	92.74727
466.811	120.15828
467.021	90.63889
467.231	31.61332
467.441	86.42218
467.651	88.53052
467.862	-18.9654
468.072	14.75222
468.282	35.82884
468.492	37.93663
468.702	-2.10736
468.912	82.20557
469.122	23.18258
469.332	59.01582
469.542	92.74727
469.752	-2.10736
469.962	56.90779
470.172	25.29023
470.382	14.75222
470.592	61.12386
470.802	59.01582
471.012	35.82884
471.222	40.04444
471.432	42.15228
471.642	40.04444
471.852	48.47593
472.062	42.15228
472.272	67.44814
472.482	23.18258
472.691	82.20557
472.901	124.37568
473.111	-65.31684
473.321	40.04444
473.531	101.18103
473.741	109.61514
473.95	75.88082
474.16	65.34002
474.37	23.18258
474.58	6.32224
474.79	35.82884
474.999	48.47593
475.209	25.29023
475.419	73.77262
475.628	84.31387
475.838	166.55444
476.048	-4.2147
476.258	107.50658
476.467	126.48442
476.677	42.15228
476.886	122.26697
477.096	158.11802
477.306	75.88082
477.515	120.15828
477.725	103.28953
477.935	86.42218
478.144	120.15828
478.354	151.79091
478.563	92.74727
478.773	206.63197
478.982	42.15228
479.192	52.69182
479.401	141.24617
479.611	69.55627
479.82	149.68192
480.03	229.83807
480.239	158.11802
480.449	59.01582
480.658	183.42829
480.868	193.97512
481.077	257.26651
481.287	84.31387
481.496	191.86571
481.705	160.22709
481.915	168.6636
482.124	200.30345
482.333	219.28955
482.543	73.77262
482.752	153.89993
482.961	162.33619
483.171	191.86571
483.38	168.6636
483.589	137.02842
483.799	143.35507
484.008	177.10045
484.217	158.11802
484.426	202.41294
484.636	231.94784
484.845	246.71673
485.054	234.05762
485.263	202.41294
485.472	210.85109
485.682	208.74152
485.891	242.49695
486.1	312.13296
486.309	301.58075
486.518	360.67883
486.727	295.24965
486.936	318.4645
487.146	345.90302
487.355	301.58075
487.564	291.029
487.773	280.47771
487.982	352.2354
488.191	394.45523
488.4	310.02248
488.609	318.4645
488.818	356.45708
489.027	388.12183
489.236	398.67758
489.445	386.01073
489.654	369.12252
489.863	424.01305
490.072	396.5664
490.281	373.34447
490.49	381.78858
490.698	487.36163
490.907	497.92105
491.116	504.25687
491.325	377.56649
491.534	489.47348
491.743	495.80913
491.952	348.0138
492.16	510.59283
492.369	548.61126
492.578	462.02054
492.787	622.54853
492.996	533.82578
493.204	531.71362
493.413	624.66125
493.622	698.61419
493.831	557.06041
494.039	559.17274
494.248	500.03297
494.457	557.06041
494.665	599.30939
494.874	717.63293
495.083	622.54853
495.291	707.06685
495.5	715.51969
495.709	745.10599
495.917	633.11228
496.126	675.37029
496.335	630.9995
496.543	768.3538
496.752	673.25728
496.96	768.3538
497.169	715.51969
497.377	918.43502
497.586	844.44577
497.794	880.38215
498.003	846.55961
498.211	952.26187
498.42	884.61012
498.628	844.44577
498.837	766.24031
499.045	833.87673
499.254	903.63637
499.462	994.54797
499.671	952.26187
499.879	994.54797
500.087	945.91919
500.296	954.37611
500.504	901.52231
500.713	1032.60768
500.921	943.80498
501.129	1142.56799
501.338	948.03341
501.546	1123.53545
501.754	903.63637
501.962	1163.71566
502.171	1123.53545
502.379	1197.55274
502.587	1022.03534
502.795	1123.53545
503.004	1015.692
503.212	1214.47162
503.42	1127.76487
503.628	1254.65476
503.837	1053.75279
504.045	1140.45325
504.253	1138.33851
504.461	1260.99955
504.669	1315.9887
504.877	1311.75872
505.085	1233.5056
505.294	1392.12945
505.502	1301.18379
505.71	1237.73541
505.918	1343.48377
506.126	1320.2187
506.334	1301.18379
506.542	1531.72256
506.75	1324.4487
506.958	1324.4487
507.166	1324.4487
507.374	1485.19163
507.582	1377.32418
507.79	1421.74009
507.998	1392.12945
508.206	1563.44793
508.414	1476.73143
508.622	1580.368
508.83	1612.09285
509.037	1480.96153
509.245	1417.50999
509.453	1588.828
509.661	1561.33292
509.869	1677.65598
510.077	1580.368
510.285	1772.82326
510.492	1597.28797
510.7	1696.68997
510.908	1616.32279
511.116	1552.87284
511.324	1535.95263
511.531	1703.03457
511.739	1571.90798
511.947	1758.01993
512.155	1658.62177
512.362	1798.19994
512.57	1590.943
512.778	1781.28222
512.985	1722.06823
513.193	1853.18061
513.401	1798.19994
513.608	1834.14919
513.816	1772.82326
514.024	1832.03457
514.231	1891.24225
514.439	1882.78425
514.646	1793.97054
514.854	1969.47454
515.061	1916.61574
515.269	2208.34336
515.477	1963.13168
515.684	2096.31934
515.892	1874.32617
516.099	2068.83842
516.307	1865.86801
516.514	2121.68522
516.722	2007.53052
516.929	2174.52719
517.136	1891.24225
517.344	2098.43321
517.551	1950.44579
517.759	2119.57144
517.966	2170.30002
518.173	2060.38251
518.381	2208.34336
518.588	2210.4568
518.796	2252.72373
519.003	2271.74269
519.21	2136.48148
519.418	2113.23005
519.625	2324.56914
519.832	2155.50466
520.039	2227.364
520.247	2394.29073
520.454	2349.92371
520.661	2573.82309
520.868	2385.84021
521.076	2485.12305
521.283	2326.68208
521.49	2575.93474
521.697	2415.41629
521.904	2611.83103
522.112	2592.82755
522.319	2613.94246
522.526	2436.54079
522.733	2535.81128
522.94	2406.96619
523.147	2497.79572
523.354	2521.02789
523.561	2795.4784
523.768	2535.81128
523.975	2660.39095
524.183	2673.05766
524.39	2770.15364
524.597	2521.02789
524.804	2848.23194
525.011	2616.05389
525.218	2803.91955
525.425	2803.91955
525.632	2597.05063
525.838	2609.71958
526.045	2837.68193
526.252	2881.9896
526.459	3118.18705
526.666	2867.22107
526.873	2896.75743
527.08	2871.44072
527.287	3006.43878
527.494	2780.70586
527.701	3113.97093
527.907	2778.59545
528.114	3158.23693
528.321	3130.83501
528.528	3149.80586
528.735	2955.8216
528.941	3057.04719
529.148	2926.29095
529.355	3031.74409
529.562	2888.31875
529.768	3331.01553
529.975	2941.05664
530.182	3343.65339
530.388	3090.78116
530.595	3217.24713
530.802	3035.96143
531.008	3446.83899
531.215	3194.06609
531.422	3250.96142
531.628	3145.59023
531.835	3535.24959
532.042	3326.80277
532.248	3427.88971
532.455	3360.5029
532.661	3358.39677
532.868	3341.54712
533.074	3598.38022
533.281	3278.35111
533.487	3575.23426
533.694	3347.86587
533.9	3783.46523
534.107	3375.2453
534.313	3665.70099
534.52	3480.52299
534.726	3802.38594
534.933	3394.19856
535.139	3528.93562
535.345	3457.36573
535.552	3690.94127
535.758	3836.01883
535.965	3775.05551
536.171	3474.20759
536.377	3791.87463
536.584	3751.92719
536.79	3724.59068
536.996	3716.17879
537.203	3806.59033
537.409	3608.90036
537.615	3892.7628
537.821	3646.76898
538.028	3890.66143
538.234	3840.22258
538.44	3817.10095
538.646	3739.31074
538.853	4020.90809
539.059	3814.99887
539.265	3827.61108
539.471	3945.29049
539.677	4104.89638
539.883	3930.58401
540.09	4033.50844
540.296	3976.80104
540.502	4167.86571
540.708	3962.09668
540.914	4016.7078
541.12	4088.10137
541.326	4442.6071
541.532	4159.47089
541.738	4377.62543
541.944	4075.50425
542.15	4362.94925
542.356	4327.30269
542.562	4518.04323
542.768	4316.81721
542.974	4608.10993
543.18	4329.39972
543.386	4637.42507
543.592	4300.03934
543.798	4494.99633
544.004	4339.88454
544.21	4524.32829
544.415	4396.49324
544.621	4610.20401
544.827	4396.49324
545.033	4585.07352
545.239	4595.54495
545.445	4603.92169
545.651	4490.8057
545.856	4765.10395
546.062	4574.60154
546.268	4578.7904
546.474	4608.10993
546.679	4471.94676
546.885	4696.04218
547.091	4696.04218
547.297	4562.03443
547.502	4622.76805
547.708	4748.36396
547.914	4729.52975
548.119	4589.26216
548.325	5057.81715
548.531	4721.1584
548.736	4993.04089
548.942	4490.8057
549.147	4930.33309
549.353	4869.69591
549.559	4821.59068
549.764	4727.43694
549.97	4863.422
550.175	4848.78208
550.381	5034.83457
550.586	4947.0572
550.792	5130.92489
550.997	5055.72794
551.203	4990.95096
551.408	4794.39543
551.614	4990.95096
551.819	5016.02855
552.025	5218.6166
552.23	4976.32084
552.435	5245.75094
552.641	5126.74807
552.846	5233.22789
553.052	5297.92126
553.257	5260.36011
553.462	5389.70548
553.668	5229.05336
553.873	5350.07695
554.078	5681.44333
554.283	5252.01215
554.489	5406.38864
554.694	5502.28761
554.899	5564.8036
555.105	5446.00512
555.31	5468.93709
555.515	5312.52633
555.72	5531.46438
555.925	5316.699
556.131	5383.44891
556.336	5272.88133
556.541	5508.54017
556.746	5406.38864
556.951	5614.80111
557.156	5483.52869
557.361	5750.14282
557.567	5516.87657
557.772	5810.49387
557.977	5268.70768
558.182	5798.00908
558.387	5679.36113
558.592	5764.71213
558.797	5581.47094
559.002	5958.16614
559.207	5856.26419
559.412	5891.62435
559.617	5752.22422
559.822	5916.58035
560.027	5633.54668
560.232	5991.42798
560.437	5604.38608
560.642	5785.52343
560.847	5648.12524
561.051	5949.84973
561.256	5681.44333
561.461	6030.91858
561.666	5985.19184
561.871	5918.65986
562.076	5860.42457
562.281	6082.86695
562.485	5768.87458
562.69	5947.77057
562.895	5897.86366
563.1	6084.94458
563.305	5922.81882
563.509	6163.87705
563.714	5889.54452
563.919	6082.86695
564.123	5887.46468
564.328	6076.63392
564.533	5947.77057
564.737	5951.92887
564.942	5999.7425
565.147	6315.41543
565.351	6022.60548
565.556	6325.7902
565.761	6014.292
565.965	6213.71167
566.17	6024.68379
566.374	6487.56123
566.579	6340.31391
566.784	6354.83647
566.988	6265.60836
567.193	6580.82638
567.397	6041.30943
567.602	6396.3232
567.806	6066.24507
568.011	6234.4721
568.215	6172.18376
568.42	6132.72355
568.624	6394.24909
568.828	6356.91103
569.033	6313.3404
569.237	6388.0266
569.442	6321.64036
569.646	6429.50588
569.85	6396.3232
570.055	6504.14513
570.259	6429.50588
570.463	6508.29088
570.668	6489.6343
570.872	6491.70735
571.076	6475.12233
571.281	6758.93651
571.485	6479.26873
571.689	6653.33359
571.893	6607.76093
572.098	6785.84537
572.302	6454.38898
572.506	6849.99709
572.71	6562.1771
572.914	7021.65082
573.119	6752.72622
573.323	6916.1953
573.527	6754.79634
573.731	6854.13516
573.935	6866.54882
574.139	6723.74216
574.343	6951.35366
574.547	6930.67306
574.751	7062.98995
574.955	7174.56093
575.159	6872.75534
575.364	7116.71743
575.568	6765.14659
575.772	7038.18755
575.976	6719.60122
576.18	7060.92321
576.383	6980.3027
576.587	7098.12116
576.791	6818.95867
576.995	7133.24593
577.199	7031.98644
577.403	7019.58363
577.607	7112.58508
577.811	7108.45265
578.015	6893.44228
578.219	7005.11265
578.422	7021.65082
578.626	7219.99719
578.83	7160.10169
