Data from mixed_try1_USB4F045381__20__00168.txt Node

Date: Thu Apr 03 20:11:43 EDT 2025
User: mmckonesweet
Spectrometer: USB4F04538
Trigger mode: 4
Integration Time (sec): 2.700000E-3
Scans to average: 1
Electric dark correction enabled: true
Nonlinearity correction enabled: true
Boxcar width: 0
XAxis mode: Wavelengths
Number of Pixels in Spectrum: 3648
>>>>>Begin Spectral Data<<<<<
345.52	18.61609
345.736	18.61609
345.952	18.61609
346.168	-19.31659
346.384	-10.88778
346.6	-10.88778
346.816	5.97099
347.032	39.69314
347.248	50.23254
347.464	-2.45859
347.68	-8.78052
347.896	-53.02787
348.112	-44.60065
348.328	10.18593
348.544	22.83131
348.76	1.75615
348.975	-10.88778
349.191	-23.53085
349.407	-0.35123
349.623	43.90883
349.839	18.61609
350.055	39.69314
350.27	31.26204
350.486	-4.56592
350.702	-61.45468
350.918	41.80097
351.133	-8.78052
351.349	16.50851
351.565	29.15432
351.781	-69.8811
351.996	10.18593
352.212	5.97099
352.428	29.15432
352.644	-19.31659
352.859	8.07845
353.075	5.97099
353.291	1.75615
353.506	-15.10224
353.722	-6.67324
353.938	35.47754
354.153	52.34049
354.369	-15.10224
354.584	10.18593
354.8	1.75615
355.016	-2.45859
355.231	3.86356
355.447	14.40096
355.662	5.97099
355.878	29.15432
356.093	31.26204
356.309	27.04663
356.524	27.04663
356.74	-2.45859
356.955	39.69314
357.171	14.40096
357.386	50.23254
357.602	-44.60065
357.817	-0.35123
358.033	48.12461
358.248	-40.38689
358.464	-27.74501
358.679	10.18593
358.895	-29.85205
359.11	1.75615
359.325	3.86356
359.541	14.40096
359.756	5.97099
359.972	-36.17303
360.187	8.07845
360.402	22.83131
360.618	81.85419
360.833	60.77252
361.048	27.04663
361.264	16.50851
361.479	-36.17303
361.694	-23.53085
361.909	-12.99502
362.125	-59.34802
362.34	-10.88778
362.555	-4.56592
362.77	33.36978
362.986	35.47754
363.201	1.75615
363.416	8.07845
363.631	-25.63794
363.847	14.40096
364.062	50.23254
364.277	33.36978
364.492	64.98867
364.707	5.97099
364.922	-53.02787
365.138	31.26204
365.353	-4.56592
365.568	-40.38689
365.783	67.09678
365.998	-2.45859
366.213	33.36978
366.428	37.58533
366.643	67.09678
366.858	79.74592
367.073	31.26204
367.288	8.07845
367.503	1.75615
367.718	1.75615
367.933	39.69314
368.148	-8.78052
368.363	22.83131
368.578	-6.67324
368.793	18.61609
369.008	58.66448
369.223	-15.10224
369.438	71.31307
369.653	22.83131
369.868	-36.17303
370.083	27.04663
370.298	-19.31659
370.513	-19.31659
370.728	5.97099
370.943	31.26204
371.157	-38.27997
371.372	50.23254
371.587	73.42125
371.802	-12.99502
372.017	-23.53085
372.232	48.12461
372.446	5.97099
372.661	-34.06606
372.876	39.69314
373.091	8.07845
373.306	41.80097
373.52	-2.45859
373.735	-8.78052
373.95	-6.67324
374.165	-97.26409
374.379	-2.45859
374.594	24.93896
374.809	-6.67324
375.023	-25.63794
375.238	5.97099
375.453	73.42125
375.667	-36.17303
375.882	8.07845
376.097	64.98867
376.311	27.04663
376.526	73.42125
376.741	-19.31659
376.955	-0.35123
377.17	-31.95906
377.384	67.09678
377.599	-44.60065
377.813	-46.70749
378.028	60.77252
378.242	-12.99502
378.457	-27.74501
378.672	5.97099
378.886	-50.9211
379.101	-44.60065
379.315	39.69314
379.53	56.55646
379.744	8.07845
379.958	-44.60065
380.173	-15.10224
380.387	56.55646
380.602	8.07845
380.816	29.15432
381.031	-2.45859
381.245	5.97099
381.459	-36.17303
381.674	8.07845
381.888	24.93896
382.103	33.36978
382.317	-2.45859
382.531	22.83131
382.746	12.29343
382.96	31.26204
383.174	31.26204
383.388	-17.20943
383.603	-44.60065
383.817	41.80097
384.031	-40.38689
384.246	31.26204
384.46	86.0708
384.674	73.42125
384.888	90.28749
385.103	5.97099
385.317	-2.45859
385.531	-40.38689
385.745	56.55646
385.959	98.72115
386.174	22.83131
386.388	16.50851
386.602	10.18593
386.816	-10.88778
387.03	-44.60065
387.244	-19.31659
387.458	12.29343
387.672	-27.74501
387.887	31.26204
388.101	48.12461
388.315	-2.45859
388.529	27.04663
388.743	18.61609
388.957	-8.78052
389.171	-42.49378
389.385	-6.67324
389.599	-4.56592
389.813	39.69314
390.027	-42.49378
390.241	39.69314
390.455	24.93896
390.669	-44.60065
390.883	90.28749
391.097	33.36978
391.311	-15.10224
391.525	56.55646
391.738	27.04663
391.952	50.23254
392.166	27.04663
392.38	-23.53085
392.594	18.61609
392.808	-59.34802
393.022	-19.31659
393.236	48.12461
393.449	52.34049
393.663	67.09678
393.877	-76.20064
394.091	43.90883
394.305	20.72369
394.518	-80.41353
394.732	-8.78052
394.946	43.90883
395.16	-10.88778
395.373	39.69314
395.587	-6.67324
395.801	1.75615
396.015	58.66448
396.228	24.93896
396.442	-53.02787
396.656	1.75615
396.869	-0.35123
397.083	86.0708
397.297	5.97099
397.51	5.97099
397.724	3.86356
397.938	54.44846
398.151	-69.8811
398.365	-25.63794
398.578	-15.10224
398.792	48.12461
399.005	35.47754
399.219	10.18593
399.433	-40.38689
399.646	-48.81431
399.86	83.96248
400.073	20.72369
400.287	-55.13461
400.5	-6.67324
400.714	48.12461
400.927	20.72369
401.141	-27.74501
401.354	35.47754
401.567	-0.35123
401.781	-36.17303
401.994	-23.53085
402.208	64.98867
402.421	-34.06606
402.635	83.96248
402.848	-15.10224
403.061	64.98867
403.275	33.36978
403.488	-50.9211
403.701	-19.31659
403.915	3.86356
404.128	-2.45859
404.341	-31.95906
404.555	27.04663
404.768	27.04663
404.981	-23.53085
405.195	1.75615
405.408	-23.53085
405.621	31.26204
405.834	41.80097
406.048	-25.63794
406.261	5.97099
406.474	22.83131
406.687	64.98867
406.9	33.36978
407.114	41.80097
407.327	33.36978
407.54	-2.45859
407.753	-50.9211
407.966	52.34049
408.179	33.36978
408.392	22.83131
408.605	-27.74501
408.819	-12.99502
409.032	-17.20943
409.245	31.26204
409.458	39.69314
409.671	29.15432
409.884	71.31307
410.097	-48.81431
410.31	67.09678
410.523	5.97099
410.736	-42.49378
410.949	79.74592
411.162	31.26204
411.375	-2.45859
411.588	31.26204
411.801	52.34049
412.014	5.97099
412.227	-6.67324
412.44	8.07845
412.653	27.04663
412.865	14.40096
413.078	-10.88778
413.291	-15.10224
413.504	-0.35123
413.717	18.61609
413.93	77.63768
414.143	41.80097
414.356	41.80097
414.568	-90.94533
414.781	35.47754
414.994	107.15516
415.207	8.07845
415.42	-23.53085
415.632	54.44846
415.845	50.23254
416.058	3.86356
416.271	1.75615
416.483	14.40096
416.696	16.50851
416.909	83.96248
417.121	10.18593
417.334	52.34049
417.547	18.61609
417.759	31.26204
417.972	43.90883
418.185	27.04663
418.397	64.98867
418.61	41.80097
418.823	14.40096
419.035	-10.88778
419.248	10.18593
419.46	18.61609
419.673	1.75615
419.885	-25.63794
420.098	48.12461
420.311	-34.06606
420.523	56.55646
420.736	-0.35123
420.948	58.66448
421.161	-21.42373
421.373	24.93896
421.586	5.97099
421.798	5.97099
422.01	81.85419
422.223	-36.17303
422.435	31.26204
422.648	14.40096
422.86	27.04663
423.073	86.0708
423.285	-10.88778
423.497	39.69314
423.71	-25.63794
423.922	31.26204
424.134	31.26204
424.347	-19.31659
424.559	-23.53085
424.771	-10.88778
424.984	-17.20943
425.196	33.36978
425.408	39.69314
425.621	50.23254
425.833	37.58533
426.045	22.83131
426.257	81.85419
426.47	5.97099
426.682	5.97099
426.894	37.58533
427.106	8.07845
427.318	-48.81431
427.531	-23.53085
427.743	27.04663
427.955	-19.31659
428.167	50.23254
428.379	-17.20943
428.591	16.50851
428.804	-10.88778
429.016	-36.17303
429.228	-2.45859
429.44	-42.49378
429.652	107.15516
429.864	-19.31659
430.076	16.50851
430.288	31.26204
430.5	-2.45859
430.712	-17.20943
430.924	-17.20943
431.136	73.42125
431.348	8.07845
431.56	22.83131
431.772	-19.31659
431.984	16.50851
432.196	-6.67324
432.408	-10.88778
432.62	119.80683
432.832	18.61609
433.044	90.28749
433.256	39.69314
433.468	64.98867
433.679	73.42125
433.891	-6.67324
434.103	33.36978
434.315	48.12461
434.527	-31.95906
434.739	12.29343
434.95	-2.45859
435.162	35.47754
435.374	27.04663
435.586	60.77252
435.798	22.83131
436.009	-6.67324
436.221	22.83131
436.433	1.75615
436.645	12.29343
436.856	22.83131
437.068	41.80097
437.28	22.83131
437.491	60.77252
437.703	41.80097
437.915	60.77252
438.126	1.75615
438.338	64.98867
438.55	-6.67324
438.761	50.23254
438.973	69.20492
439.184	75.52945
439.396	56.55646
439.608	100.82962
439.819	64.98867
440.031	75.52945
440.242	-27.74501
440.454	33.36978
440.665	41.80097
440.877	43.90883
441.088	48.12461
441.3	-8.78052
441.511	33.36978
441.723	39.69314
441.934	-10.88778
442.146	22.83131
442.357	10.18593
442.569	67.09678
442.78	92.39587
442.991	18.61609
443.203	-44.60065
443.414	12.29343
443.626	56.55646
443.837	20.72369
444.048	39.69314
444.26	39.69314
444.471	-8.78052
444.682	29.15432
444.894	48.12461
445.105	39.69314
445.316	-48.81431
445.528	75.52945
445.739	24.93896
445.95	136.67694
446.161	96.6127
446.373	-19.31659
446.584	43.90883
446.795	52.34049
447.006	-17.20943
447.217	22.83131
447.429	3.86356
447.64	48.12461
447.851	81.85419
448.062	73.42125
448.273	41.80097
448.484	58.66448
448.695	48.12461
448.907	94.50427
449.118	41.80097
449.329	18.61609
449.54	46.01671
449.751	39.69314
449.962	83.96248
450.173	-21.42373
450.384	77.63768
450.595	50.23254
450.806	83.96248
451.017	77.63768
451.228	12.29343
451.439	64.98867
451.65	1.75615
451.861	41.80097
452.072	41.80097
452.283	56.55646
452.494	-25.63794
452.705	-44.60065
452.915	-6.67324
453.126	48.12461
453.337	56.55646
453.548	41.80097
453.759	75.52945
453.97	60.77252
454.181	83.96248
454.391	107.15516
454.602	-53.02787
454.813	64.98867
455.024	39.69314
455.235	39.69314
455.445	-2.45859
455.656	22.83131
455.867	-19.31659
456.078	22.83131
456.288	50.23254
456.499	54.44846
456.71	39.69314
456.921	52.34049
457.131	52.34049
457.342	16.50851
457.553	56.55646
457.763	41.80097
457.974	12.29343
458.184	58.66448
458.395	-27.74501
458.606	90.28749
458.816	16.50851
459.027	147.22146
459.237	58.66448
459.448	64.98867
459.659	48.12461
459.869	31.26204
460.08	90.28749
460.29	81.85419
460.501	43.90883
460.711	115.58952
460.922	43.90883
461.132	94.50427
461.343	14.40096
461.553	115.58952
461.764	43.90883
461.974	79.74592
462.184	14.40096
462.395	75.52945
462.605	39.69314
462.816	105.04662
463.026	64.98867
463.236	1.75615
463.447	52.34049
463.657	60.77252
463.867	24.93896
464.078	48.12461
464.288	117.69816
464.498	58.66448
464.709	81.85419
464.919	48.12461
465.129	46.01671
465.339	39.69314
465.55	43.90883
465.76	52.34049
465.97	5.97099
466.18	86.0708
466.391	100.82962
466.601	50.23254
466.811	111.37229
467.021	124.02423
467.231	100.82962
467.441	94.50427
467.651	48.12461
467.862	86.0708
468.072	81.85419
468.282	187.2954
468.492	140.89469
468.702	35.47754
468.912	52.34049
469.122	62.88058
469.332	143.00359
469.542	31.26204
469.752	128.24171
469.962	132.45929
470.172	96.6127
470.382	98.72115
470.592	90.28749
470.802	107.15516
471.012	115.58952
471.222	115.58952
471.432	124.02423
471.642	119.80683
471.852	155.65745
472.062	161.98467
472.272	100.82962
472.482	178.85816
472.691	166.20292
472.901	113.4809
473.111	90.28749
473.321	124.02423
473.531	140.89469
473.741	166.20292
473.95	98.72115
474.16	90.28749
474.37	166.20292
474.58	149.33043
474.79	134.5681
474.999	166.20292
475.209	183.07674
475.419	202.06136
475.628	235.81579
475.838	143.00359
476.048	233.70599
476.258	275.90563
476.467	210.49949
476.677	187.2954
476.886	343.44047
477.096	309.67074
477.306	259.02486
477.515	216.8283
477.725	250.58493
477.935	246.36508
478.144	278.01581
478.354	235.81579
478.563	280.12601
478.773	322.33385
478.982	301.22902
479.192	301.22902
479.401	275.90563
479.611	242.1453
479.82	406.7706
480.03	406.7706
480.239	425.77255
480.449	328.66565
480.658	360.32701
480.868	389.88109
481.077	402.54813
481.287	301.22902
481.496	436.32974
481.705	470.11538
481.915	440.55273
482.124	351.8836
482.333	406.7706
482.543	446.88733
482.752	605.29508
482.961	537.6981
483.171	455.33367
483.38	546.14697
483.589	529.24946
483.799	567.2701
484.008	556.70836
484.217	691.92262
484.426	622.19641
484.636	565.15772
484.845	605.29508
485.054	626.42187
485.263	668.67912
485.472	723.62049
485.682	696.14886
485.891	672.90511
486.1	698.262
486.309	808.15966
486.518	854.66273
486.727	894.82784
486.936	869.46005
487.146	753.20736
487.355	869.46005
487.564	918.08266
487.773	937.11002
487.982	858.89049
488.191	892.71381
488.4	975.1665
488.609	1002.65311
488.818	886.37178
489.027	968.8236
489.236	1121.0683
489.445	1137.98605
489.654	1036.48424
489.863	1114.72421
490.072	1070.31686
490.281	1341.01625
490.49	1125.29771
490.698	1222.57865
490.907	1247.95749
491.116	1459.45851
491.325	1076.66063
491.534	1296.60134
491.743	1307.17624
491.952	1391.77694
492.16	1273.33673
492.369	1560.98041
492.578	1349.47632
492.787	1364.28149
492.996	1548.29029
493.204	1510.21968
493.413	1459.45851
493.622	1599.05046
493.831	1421.38758
494.039	1711.14153
494.248	1556.75038
494.457	1654.03943
494.665	1683.64819
494.874	1791.50337
495.083	1664.61404
495.291	1700.56723
495.5	1647.69462
495.709	1918.37775
495.917	1717.48608
496.126	1780.92976
496.335	1692.10773
496.543	1937.4073
496.752	1755.55269
496.96	1996.60726
497.169	1859.1719
497.377	2053.68816
497.586	2034.66174
497.794	2017.7489
498.003	1916.26333
498.211	2127.67423
498.42	2169.94776
498.628	2123.4467
498.837	2034.66174
499.045	2178.40207
499.254	2123.4467
499.462	2288.29561
499.671	2095.96703
499.879	2396.05123
500.087	2231.23848
500.296	2326.32992
500.504	2288.29561
500.713	2505.89194
500.921	2512.22799
501.129	2457.31218
501.338	2254.48478
501.546	2529.12363
501.754	2406.6141
501.962	2651.59435
502.171	2482.65887
502.379	2619.9248
502.587	2535.4593
502.795	2611.47912
503.004	2442.52587
503.212	2676.92796
503.42	2643.14941
503.628	2824.66976
503.837	2634.70427
504.045	2828.88998
504.253	2736.03251
504.461	2727.58963
504.669	2748.69643
504.877	2940.70508
505.085	2774.02283
505.294	2961.79769
505.502	2858.42995
505.71	3122.05176
505.918	2824.66976
506.126	2913.28249
506.334	2904.84427
506.542	3039.82727
506.75	2786.6853
506.958	3081.99666
507.166	3039.82727
507.374	3086.21326
507.582	3092.53803
507.79	3296.96043
507.998	3172.63942
508.206	3486.48738
508.414	3166.31647
508.622	3071.4549
508.83	3229.53929
509.037	3423.32764
509.245	3237.96787
509.453	3284.32028
509.661	3370.68227
509.869	3425.43322
510.077	3301.17367
510.285	3518.06116
510.492	3385.42408
510.7	3633.79616
510.908	3296.96043
511.116	3494.90746
511.324	3465.43593
511.531	3513.85156
511.739	3395.95342
511.947	3699.00355
512.155	3741.06307
512.362	3717.93129
512.57	3629.5886
512.778	3690.59073
512.985	3469.64637
513.193	3677.97091
513.401	3741.06307
513.608	3789.42192
513.816	3696.90037
514.024	3890.3112
514.231	3566.46627
514.439	3833.5666
514.646	3812.54641
514.854	4007.95695
515.061	3753.67942
515.269	3949.14203
515.477	3806.23997
515.684	4024.75827
515.892	3923.93075
516.099	3928.13283
516.307	3947.0412
516.514	4175.91043
516.722	4144.42933
516.929	4301.7871
517.136	4091.95034
517.344	4326.95318
517.551	4133.93458
517.759	4171.71323
517.966	4295.49509
518.173	4350.01936
518.381	4163.31856
518.588	4519.7891
518.796	4236.7604
519.003	4186.40308
519.21	4343.72884
519.418	4452.73676
519.625	4488.36112
519.832	4597.29013
520.039	4452.73676
520.247	4528.16906
520.454	4530.26399
520.661	4739.64465
520.868	4521.88413
521.076	4871.43863
521.283	4687.32051
521.49	4580.53573
521.697	4637.07611
521.904	4691.50696
522.112	4647.54476
522.319	4946.70879
522.526	4620.3251
522.733	5026.12831
522.94	4620.3251
523.147	4925.80339
523.354	4704.06577
523.561	5065.82557
523.768	4850.52498
523.975	4978.06258
524.183	4653.82568
524.39	5057.46895
524.597	4913.25905
524.804	4942.5279
525.011	5021.94917
525.218	5141.01849
525.425	4948.79921
525.632	5330.9549
525.838	5245.40309
526.045	5308.00584
526.252	5207.83135
526.459	5314.26495
526.666	5182.77932
526.873	5322.61011
527.08	5297.57351
527.287	5360.1587
527.494	5249.57726
527.701	5504.02446
527.907	5353.90113
528.114	5556.12209
528.321	5497.77175
528.528	5443.57277
528.735	5447.74249
528.941	5606.12196
529.148	5397.69968
529.355	5685.26064
529.562	5468.58966
529.768	5830.95323
529.975	5566.53985
530.182	5872.55844
530.388	5324.69635
530.595	5541.53623
530.802	5422.72278
531.008	6130.30028
531.215	6022.25909
531.422	6009.7887
531.628	5739.38853
531.835	5941.18641
532.042	5714.40841
532.248	6097.06361
532.455	5766.4465
532.661	6086.67592
532.868	5980.68784
533.074	6416.71743
533.281	5922.47224
533.487	6327.51927
533.694	6059.66516
533.9	6414.64354
534.107	6121.99168
534.313	6248.65705
534.52	6250.73281
534.726	6462.33704
534.933	6433.30768
535.139	6317.1446
535.345	6306.76933
535.552	6572.19269
535.758	6329.59414
535.965	6308.84443
536.171	6420.86513
536.377	6644.70326
536.584	6536.96306
536.79	6478.9232
536.996	6623.98884
537.203	6675.77058
537.409	6478.9232
537.615	6580.48104
537.821	6553.54254
538.028	6913.78223
538.234	6630.20341
538.44	6771.01147
538.646	6806.19694
538.853	6955.14486
539.059	6917.9189
539.265	6955.14486
539.471	6942.73702
539.677	6907.57705
539.883	6897.23464
540.09	6969.61964
540.296	6901.37168
540.502	7041.97701
540.708	6835.16826
540.914	7035.77603
541.12	7008.90278
541.326	7095.71041
541.532	7015.10463
541.738	7440.48702
541.944	7149.4287
542.15	7409.54405
542.356	7170.08557
542.562	7450.80025
542.768	7316.68575
542.974	7562.14885
543.18	7475.54982
543.386	7527.10143
543.592	7405.41795
543.798	7578.63961
544.004	7199.00146
544.21	7636.34652
544.415	7271.27223
544.621	7836.13162
544.827	7506.4824
545.033	7597.19008
545.239	7611.61703
545.445	7984.29909
545.651	7630.16444
545.856	7963.72664
546.062	7848.483
546.268	7862.89199
546.474	7852.59996
546.679	7669.31441
546.885	7811.42663
547.091	7632.22515
547.297	7605.43418
547.502	7677.55554
547.708	7817.60316
547.914	7957.55451
548.119	7998.69858
548.325	8037.77791
548.531	7663.13335
548.736	7788.77774
548.942	7702.27689
549.147	7869.06697
549.353	8093.2991
549.559	8228.95602
549.764	8239.22953
549.97	7971.95587
550.175	7941.09459
550.381	8313.18427
550.586	8187.85703
550.792	8362.47335
550.997	8169.35989
551.203	8479.49025
551.408	8272.10144
551.614	8502.06529
551.819	8409.69823
552.025	8604.65023
552.23	8247.44798
552.435	8561.5703
552.641	8748.19068
552.846	8647.72191
553.052	8744.09078
553.257	8762.53976
553.462	8516.43003
553.668	8748.19068
553.873	8715.38942
554.078	8877.30034
554.283	8783.03689
554.489	8922.36942
554.694	8701.03738
554.899	8774.83825
555.105	8707.18837
555.31	8865.00727
555.515	9090.27886
555.72	9045.24153
555.925	8791.23523
556.131	9166.00464
556.336	8981.76552
556.541	9317.38655
556.746	9123.02803
556.951	9262.16326
557.156	8963.33384
557.361	9080.04384
557.567	9231.47839
557.772	8996.10028
557.977	8897.78735
558.182	9364.41908
558.387	9100.51345
558.592	9456.41421
558.797	9378.73161
559.002	9501.37768
559.207	9466.63386
559.412	9298.98014
559.617	9161.91196
559.822	9337.83655
560.027	9151.67994
560.232	9425.75282
560.437	9343.97123
560.642	9515.68261
560.847	9593.32439
561.051	9562.67904
561.256	9288.75377
561.461	9693.40802
561.666	9511.59556
561.871	9670.94351
562.076	9660.73175
562.281	9811.82674
562.485	9485.02822
562.69	9636.22194
562.895	9534.07352
563.1	9807.74418
563.305	9574.93761
563.509	9877.13953
563.714	9740.37328
563.919	9738.33148
564.123	9617.83812
564.328	9762.83208
564.533	9630.09414
564.737	9646.43463
564.942	9775.08156
565.147	9895.50602
565.351	9589.23855
565.556	9977.12051
565.761	10040.35581
565.965	10095.42056
566.17	9756.70713
566.374	9909.79025
566.579	9773.04001
566.784	10115.8123
566.988	9860.81276
567.193	10221.82694
567.397	10134.16367
567.602	10327.80467
567.806	10048.5142
568.011	10101.53823
568.215	10268.7062
568.42	10500.96046
568.624	10319.65383
568.828	10189.21103
569.033	10209.59638
569.237	10492.81405
569.442	10291.12419
569.646	10105.6166
569.85	10144.35839
570.055	10268.7062
570.259	10331.88001
570.463	10517.25268
570.668	10160.66921
570.872	10456.15266
571.076	10395.04105
571.281	10395.04105
571.485	10401.15274
571.689	10431.70942
571.893	10358.36844
572.098	10657.73969
572.302	10344.10572
572.506	10710.66161
572.71	10584.44952
572.914	10608.88136
573.119	10405.22713
573.323	10617.0249
573.527	10486.70411
573.731	10899.8934
573.935	10844.96556
574.139	10956.8468
574.343	10425.59832
574.547	10877.51641
574.751	10820.55048
574.955	10936.50732
575.159	10918.20082
575.364	10999.55606
575.568	10861.24135
575.772	11389.82119
575.976	10836.82739
576.18	11028.02617
576.383	11064.62743
576.587	11166.27919
576.791	10999.55606
