Data from mixed_try1_USB4F045381__29__00177.txt Node

Date: Thu Apr 03 20:12:51 EDT 2025
User: mmckonesweet
Spectrometer: USB4F04538
Trigger mode: 4
Integration Time (sec): 2.700000E-3
Scans to average: 1
Electric dark correction enabled: true
Nonlinearity correction enabled: true
Boxcar width: 0
XAxis mode: Wavelengths
Number of Pixels in Spectrum: 3648
>>>>>Begin Spectral Data<<<<<
345.52	14.40096
345.736	14.40096
345.952	14.40096
346.168	5.97099
346.384	-23.53085
346.6	-36.17303
346.816	12.29343
347.032	-36.17303
347.248	18.61609
347.464	18.61609
347.68	20.72369
347.896	33.36978
348.112	-15.10224
348.328	-57.24133
348.544	-6.67324
348.76	37.58533
348.975	10.18593
349.191	62.88058
349.407	20.72369
349.623	-15.10224
349.839	5.97099
350.055	10.18593
350.27	71.31307
350.486	-36.17303
350.702	33.36978
350.918	-4.56592
351.133	5.97099
351.349	1.75615
351.565	12.29343
351.781	3.86356
351.996	39.69314
352.212	18.61609
352.428	29.15432
352.644	18.61609
352.859	41.80097
353.075	1.75615
353.291	-12.99502
353.506	1.75615
353.722	22.83131
353.938	54.44846
354.153	10.18593
354.369	27.04663
354.584	77.63768
354.8	58.66448
355.016	18.61609
355.231	1.75615
355.447	-15.10224
355.662	-31.95906
355.878	-27.74501
356.093	10.18593
356.309	10.18593
356.524	60.77252
356.74	31.26204
356.955	-19.31659
357.171	5.97099
357.386	1.75615
357.602	10.18593
357.817	8.07845
358.033	29.15432
358.248	48.12461
358.464	-29.85205
358.679	-23.53085
358.895	-6.67324
359.11	14.40096
359.325	18.61609
359.541	-15.10224
359.756	10.18593
359.972	18.61609
360.187	-40.38689
360.402	-50.9211
360.618	18.61609
360.833	31.26204
361.048	18.61609
361.264	35.47754
361.479	-2.45859
361.694	-23.53085
361.909	14.40096
362.125	22.83131
362.34	43.90883
362.555	41.80097
362.77	96.6127
362.986	-4.56592
363.201	22.83131
363.416	27.04663
363.631	-48.81431
363.847	-2.45859
364.062	3.86356
364.277	-36.17303
364.492	8.07845
364.707	43.90883
364.922	-15.10224
365.138	64.98867
365.353	67.09678
365.568	-23.53085
365.783	3.86356
365.998	10.18593
366.213	-40.38689
366.428	29.15432
366.643	48.12461
366.858	43.90883
367.073	60.77252
367.288	-4.56592
367.503	-12.99502
367.718	-29.85205
367.933	-27.74501
368.148	39.69314
368.363	-38.27997
368.578	-4.56592
368.793	14.40096
369.008	-46.70749
369.223	20.72369
369.438	41.80097
369.653	-10.88778
369.868	50.23254
370.083	-80.41353
370.298	-19.31659
370.513	3.86356
370.728	8.07845
370.943	-21.42373
371.157	-29.85205
371.372	8.07845
371.587	-15.10224
371.802	12.29343
372.017	-15.10224
372.232	69.20492
372.446	-38.27997
372.661	98.72115
372.876	18.61609
373.091	29.15432
373.306	-2.45859
373.52	58.66448
373.735	27.04663
373.95	14.40096
374.165	-27.74501
374.379	-38.27997
374.594	52.34049
374.809	-31.95906
375.023	5.97099
375.238	33.36978
375.453	43.90883
375.667	-15.10224
375.882	10.18593
376.097	37.58533
376.311	37.58533
376.526	37.58533
376.741	54.44846
376.955	-46.70749
377.17	-2.45859
377.384	14.40096
377.599	27.04663
377.813	35.47754
378.028	29.15432
378.242	37.58533
378.457	-2.45859
378.672	50.23254
378.886	29.15432
379.101	-4.56592
379.315	62.88058
379.53	-38.27997
379.744	18.61609
379.958	54.44846
380.173	-50.9211
380.387	12.29343
380.602	-25.63794
380.816	14.40096
381.031	27.04663
381.245	27.04663
381.459	5.97099
381.674	-55.13461
381.888	-31.95906
382.103	-10.88778
382.317	50.23254
382.531	83.96248
382.746	100.82962
382.96	39.69314
383.174	-21.42373
383.388	27.04663
383.603	-57.24133
383.817	14.40096
384.031	-6.67324
384.246	1.75615
384.46	-23.53085
384.674	60.77252
384.888	24.93896
385.103	-31.95906
385.317	12.29343
385.531	10.18593
385.745	50.23254
385.959	10.18593
386.174	22.83131
386.388	10.18593
386.602	-40.38689
386.816	-10.88778
387.03	-15.10224
387.244	5.97099
387.458	18.61609
387.672	43.90883
387.887	-42.49378
388.101	73.42125
388.315	69.20492
388.529	94.50427
388.743	73.42125
388.957	10.18593
389.171	27.04663
389.385	8.07845
389.599	24.93896
389.813	37.58533
390.027	16.50851
390.241	88.17913
390.455	69.20492
390.669	1.75615
390.883	31.26204
391.097	43.90883
391.311	12.29343
391.525	79.74592
391.738	-31.95906
391.952	10.18593
392.166	54.44846
392.38	-44.60065
392.594	-4.56592
392.808	18.61609
393.022	-40.38689
393.236	22.83131
393.449	39.69314
393.663	10.18593
393.877	-6.67324
394.091	18.61609
394.305	10.18593
394.518	29.15432
394.732	-23.53085
394.946	18.61609
395.16	88.17913
395.373	-44.60065
395.587	27.04663
395.801	22.83131
396.015	1.75615
396.228	-10.88778
396.442	-23.53085
396.656	43.90883
396.869	29.15432
397.083	-23.53085
397.297	35.47754
397.51	-61.45468
397.724	-88.83902
397.938	56.55646
398.151	31.26204
398.365	60.77252
398.578	62.88058
398.792	-2.45859
399.005	69.20492
399.219	73.42125
399.433	35.47754
399.646	1.75615
399.86	-4.56592
400.073	46.01671
400.287	-29.85205
400.5	-19.31659
400.714	-2.45859
400.927	52.34049
401.141	-2.45859
401.354	10.18593
401.567	67.09678
401.781	52.34049
401.994	29.15432
402.208	5.97099
402.421	-23.53085
402.635	31.26204
402.848	10.18593
403.061	16.50851
403.275	27.04663
403.488	46.01671
403.701	67.09678
403.915	-27.74501
404.128	77.63768
404.341	-55.13461
404.555	62.88058
404.768	14.40096
404.981	31.26204
405.195	35.47754
405.408	10.18593
405.621	-6.67324
405.834	37.58533
406.048	10.18593
406.261	1.75615
406.474	5.97099
406.687	14.40096
406.9	64.98867
407.114	27.04663
407.327	3.86356
407.54	73.42125
407.753	94.50427
407.966	31.26204
408.179	60.77252
408.392	48.12461
408.605	10.18593
408.819	46.01671
409.032	-6.67324
409.245	35.47754
409.458	60.77252
409.671	-4.56592
409.884	37.58533
410.097	64.98867
410.31	71.31307
410.523	-15.10224
410.736	39.69314
410.949	-6.67324
411.162	12.29343
411.375	43.90883
411.588	46.01671
411.801	27.04663
412.014	-15.10224
412.227	-15.10224
412.44	35.47754
412.653	20.72369
412.865	60.77252
413.078	71.31307
413.291	1.75615
413.504	18.61609
413.717	64.98867
413.93	64.98867
414.143	-21.42373
414.356	-21.42373
414.568	27.04663
414.781	-17.20943
414.994	18.61609
415.207	-46.70749
415.42	10.18593
415.632	43.90883
415.845	29.15432
416.058	3.86356
416.271	111.37229
416.483	69.20492
416.696	29.15432
416.909	5.97099
417.121	69.20492
417.334	111.37229
417.547	77.63768
417.759	115.58952
417.972	62.88058
418.185	48.12461
418.397	24.93896
418.61	46.01671
418.823	20.72369
419.035	48.12461
419.248	10.18593
419.46	43.90883
419.673	3.86356
419.885	94.50427
420.098	54.44846
420.311	-10.88778
420.523	62.88058
420.736	-23.53085
420.948	86.0708
421.161	39.69314
421.373	102.93811
421.586	3.86356
421.798	52.34049
422.01	-21.42373
422.223	-40.38689
422.435	16.50851
422.648	35.47754
422.86	98.72115
423.073	31.26204
423.285	20.72369
423.497	29.15432
423.71	43.90883
423.922	62.88058
424.134	64.98867
424.347	-6.67324
424.559	10.18593
424.771	-31.95906
424.984	1.75615
425.196	90.28749
425.408	33.36978
425.621	54.44846
425.833	14.40096
426.045	18.61609
426.257	-2.45859
426.47	-21.42373
426.682	41.80097
426.894	46.01671
427.106	10.18593
427.318	56.55646
427.531	105.04662
427.743	8.07845
427.955	18.61609
428.167	94.50427
428.379	3.86356
428.591	5.97099
428.804	88.17913
429.016	56.55646
429.228	10.18593
429.44	-21.42373
429.652	-21.42373
429.864	3.86356
430.076	48.12461
430.288	29.15432
430.5	-29.85205
430.712	-4.56592
430.924	24.93896
431.136	119.80683
431.348	52.34049
431.56	-12.99502
431.772	69.20492
431.984	54.44846
432.196	-21.42373
432.408	73.42125
432.62	20.72369
432.832	22.83131
433.044	3.86356
433.256	39.69314
433.468	10.18593
433.679	46.01671
433.891	-2.45859
434.103	10.18593
434.315	-40.38689
434.527	69.20492
434.739	20.72369
434.95	-23.53085
435.162	35.47754
435.374	48.12461
435.586	10.18593
435.798	62.88058
436.009	5.97099
436.221	92.39587
436.433	-2.45859
436.645	39.69314
436.856	-4.56592
437.068	-6.67324
437.28	39.69314
437.491	43.90883
437.703	62.88058
437.915	79.74592
438.126	-2.45859
438.338	73.42125
438.55	10.18593
438.761	-19.31659
438.973	18.61609
439.184	39.69314
439.396	10.18593
439.608	1.75615
439.819	60.77252
440.031	111.37229
440.242	-23.53085
440.454	39.69314
440.665	-29.85205
440.877	105.04662
441.088	27.04663
441.3	60.77252
441.511	67.09678
441.723	37.58533
441.934	77.63768
442.146	75.52945
442.357	14.40096
442.569	-6.67324
442.78	-36.17303
442.991	64.98867
443.203	20.72369
443.414	81.85419
443.626	12.29343
443.837	-48.81431
444.048	60.77252
444.26	94.50427
444.471	43.90883
444.682	27.04663
444.894	90.28749
445.105	-17.20943
445.316	3.86356
445.528	-31.95906
445.739	-23.53085
445.95	37.58533
446.161	31.26204
446.373	29.15432
446.584	1.75615
446.795	-0.35123
447.006	119.80683
447.217	111.37229
447.429	60.77252
447.64	64.98867
447.851	14.40096
448.062	43.90883
448.273	56.55646
448.484	31.26204
448.695	48.12461
448.907	75.52945
449.118	27.04663
449.329	48.12461
449.54	113.4809
449.751	54.44846
449.962	41.80097
450.173	88.17913
450.384	-2.45859
450.595	69.20492
450.806	18.61609
451.017	52.34049
451.228	111.37229
451.439	31.26204
451.65	54.44846
451.861	46.01671
452.072	111.37229
452.283	86.0708
452.494	-31.95906
452.705	54.44846
452.915	-34.06606
453.126	81.85419
453.337	52.34049
453.548	67.09678
453.759	58.66448
453.97	16.50851
454.181	5.97099
454.391	-23.53085
454.602	56.55646
454.813	98.72115
455.024	20.72369
455.235	33.36978
455.445	102.93811
455.656	71.31307
455.867	1.75615
456.078	46.01671
456.288	-4.56592
456.499	86.0708
456.71	79.74592
456.921	43.90883
457.131	71.31307
457.342	113.4809
457.553	90.28749
457.763	77.63768
457.974	71.31307
458.184	77.63768
458.395	90.28749
458.606	35.47754
458.816	64.98867
459.027	107.15516
459.237	77.63768
459.448	52.34049
459.659	64.98867
459.869	46.01671
460.08	105.04662
460.29	46.01671
460.501	73.42125
460.711	73.42125
460.922	119.80683
461.132	111.37229
461.343	130.35049
461.553	56.55646
461.764	71.31307
461.974	69.20492
462.184	14.40096
462.395	-21.42373
462.605	113.4809
462.816	43.90883
463.026	71.31307
463.236	27.04663
463.447	86.0708
463.657	111.37229
463.867	31.26204
464.078	77.63768
464.288	52.34049
464.498	105.04662
464.709	54.44846
464.919	60.77252
465.129	60.77252
465.339	115.58952
465.55	22.83131
465.76	73.42125
465.97	90.28749
466.18	130.35049
466.391	31.26204
466.601	94.50427
466.811	100.82962
467.021	81.85419
467.231	115.58952
467.441	73.42125
467.651	166.20292
467.862	121.91552
468.072	105.04662
468.282	170.42125
468.492	90.28749
468.702	187.2954
468.912	111.37229
469.122	113.4809
469.332	199.95188
469.542	153.54842
469.752	170.42125
469.962	170.42125
470.172	115.58952
470.382	107.15516
470.592	183.07674
470.802	221.0476
471.012	145.11251
471.222	242.1453
471.432	170.42125
471.642	197.84241
471.852	140.89469
472.062	193.62355
472.272	204.17086
472.482	252.69488
472.691	149.33043
472.901	237.92561
473.111	195.73297
473.321	233.70599
473.531	227.37671
473.741	237.92561
473.95	286.45672
474.16	199.95188
474.37	212.60907
474.58	265.355
474.79	248.47499
474.999	195.73297
475.209	145.11251
475.419	218.93794
475.628	265.355
475.838	242.1453
476.048	227.37671
476.258	233.70599
476.467	356.10527
476.677	292.78759
476.886	398.32572
477.096	419.43842
477.306	330.77629
477.515	389.88109
477.725	273.79547
477.935	309.67074
478.144	413.10444
478.354	330.77629
478.563	474.33885
478.773	372.99264
478.982	432.10681
479.192	448.99889
479.401	432.10681
479.611	480.67419
479.82	539.8103
480.03	482.78599
480.239	512.35284
480.449	425.77255
480.658	575.71972
480.868	565.15772
481.077	679.24418
481.287	594.73216
481.496	643.32419
481.705	660.22729
481.915	677.13115
482.124	626.42187
482.333	664.45318
482.543	601.06987
482.752	721.50723
482.961	685.58335
483.171	808.15966
483.38	795.47777
483.589	780.68268
483.799	848.32114
484.008	797.5914
484.217	816.61443
484.426	947.68104
484.636	829.29687
484.845	924.42505
485.054	1002.65311
485.263	994.19557
485.472	954.02373
485.682	1015.3396
485.891	983.6238
486.1	1133.75658
486.309	1188.74091
486.518	1140.10079
486.727	1192.97058
486.936	1205.65967
487.146	1104.15084
487.355	1192.97058
487.564	1129.52714
487.773	1201.42996
487.982	1319.8662
488.191	1404.4672
488.4	1302.94628
488.609	1419.27253
488.818	1548.29029
489.027	1434.07789
489.236	1324.09619
489.445	1596.93547
489.654	1450.9983
489.863	1472.14882
490.072	1603.28043
490.281	1654.03943
490.49	1575.78549
490.698	1666.72896
490.907	1567.32546
491.116	1751.32312
491.325	1768.24129
491.534	1829.5675
491.743	1747.09354
491.952	1770.35605
492.16	1658.26928
492.369	2161.49331
492.578	1852.82818
492.787	1952.20774
492.996	1878.2028
493.204	1865.51558
493.413	2038.88988
493.622	2127.67423
493.831	2057.91618
494.039	2176.2885
494.248	2045.23204
494.457	2336.89446
494.665	2203.76422
494.874	2343.23306
495.083	2138.24291
495.291	2275.61682
495.5	2370.6993
495.709	2292.5218
495.917	2258.71126
496.126	2429.85148
496.335	2463.649
496.543	2546.01853
496.752	2474.21015
496.96	2503.7799
497.169	2372.81202
497.377	2685.37209
497.586	2393.93863
497.794	2603.03324
498.003	2531.23553
498.211	2706.48151
498.42	2520.6759
498.628	2841.55031
498.837	2653.70555
499.045	2704.37062
499.254	2736.03251
499.462	2887.96714
499.671	2799.34729
499.879	2879.52823
500.087	2875.30869
500.296	3001.86953
500.504	3071.4549
500.713	3069.3465
500.921	2919.611
501.129	3001.86953
501.338	2932.26763
501.546	3301.17367
501.754	2807.78833
501.962	3368.57623
502.171	3153.67014
502.379	3259.03816
502.587	3229.53929
502.795	3364.36409
503.004	3178.96222
503.212	3330.66447
503.42	3417.01078
503.628	3532.79418
503.837	3296.96043
504.045	3595.92545
504.253	3385.42408
504.461	3524.37542
504.669	3560.15311
504.877	3537.00345
505.085	3246.39619
505.294	3659.0399
505.502	3616.96548
505.71	3768.3976
505.918	3490.69746
506.126	3759.98733
506.334	3522.27068
506.542	3659.0399
506.75	3541.21264
506.958	3844.07595
507.166	3829.36272
507.374	3965.94792
507.582	3896.61526
507.79	3898.71657
507.998	3785.21721
508.206	4112.94351
508.414	3854.58481
508.622	3896.61526
508.83	3852.48308
509.037	3877.70255
509.245	3751.57674
509.453	4100.34786
509.661	4033.15844
509.869	4058.35696
510.077	4003.75642
510.285	4251.44564
510.492	3932.33483
510.7	4106.64578
510.908	4020.55807
511.116	4180.10755
511.324	4108.74504
511.531	4255.64124
511.739	3947.0412
511.947	4459.02387
512.155	4224.17222
512.362	4314.37053
512.57	4198.99355
512.778	4240.95629
512.985	4377.27601
513.193	4584.72447
513.401	4540.73833
513.608	4343.72884
513.816	4593.10167
514.024	4465.31079
514.231	4270.32514
514.439	4486.26575
514.646	4337.43813
514.854	4591.0074
515.061	4394.04751
515.269	4708.25186
515.477	4756.38539
515.684	4800.32293
515.892	4576.34691
516.099	4846.34198
516.307	4699.87959
516.514	4710.34487
516.722	4760.57035
516.929	4871.43863
517.136	4718.71669
517.344	4733.3665
517.551	4850.52498
517.759	4921.62204
517.966	4837.9757
518.173	4959.25093
518.381	5021.94917
518.588	4986.42271
518.796	4833.79242
519.003	5291.31383
519.21	4946.70879
519.418	5184.86712
519.625	5147.28321
519.832	5141.01849
520.039	5239.14166
520.247	5301.74651
520.454	5044.93332
520.661	5514.44516
520.868	5322.61011
521.076	5424.80788
521.283	5113.86896
521.49	5297.57351
521.697	5441.48788
521.904	5289.22722
522.112	5212.00636
522.319	5485.26571
522.526	5493.60316
522.733	5510.27695
522.94	5395.61427
523.147	5483.18128
523.354	5376.84452
523.561	5818.46983
523.768	5535.2848
523.975	5756.04006
524.183	5753.9587
524.39	5812.22781
524.597	5751.87732
524.804	5791.41954
525.011	5639.44766
525.218	5735.22542
525.425	5710.24473
525.632	5691.50698
525.838	5785.17659
526.045	5885.03817
526.252	5778.93344
526.459	5816.38918
526.666	5820.55045
526.873	6246.58127
527.08	6007.71022
527.287	6128.22316
527.494	6049.27535
527.701	6354.49071
527.907	6053.43135
528.114	6167.68434
528.321	6169.76101
528.528	6319.21958
528.735	6263.18684
528.941	6358.63981
529.148	6244.50547
529.355	6402.19974
529.562	5901.67648
529.768	6283.9417
529.975	6263.18684
530.182	6638.48917
530.388	6300.54389
530.595	6433.30768
530.802	6358.63981
531.008	6644.70326
531.215	6362.78882
531.422	6657.13081
531.628	6491.36184
531.835	6640.56056
532.042	6524.52748
532.248	6710.97395
532.455	6626.06038
532.661	6843.44496
532.868	6650.91714
533.074	6839.30666
533.281	6760.66155
533.487	6816.54435
533.694	6818.61377
533.9	7035.77603
534.107	6739.95999
534.313	6967.55188
534.52	6888.96031
534.726	6975.82278
534.933	6549.39781
535.139	7062.64549
535.345	6917.9189
535.552	7103.97574
535.758	6884.823
535.965	7273.33671
536.171	7221.71805
536.377	7267.1432
536.584	7130.83561
536.79	7298.10878
536.996	7269.20772
537.203	7335.26095
537.409	7099.84312
537.615	7130.83561
537.821	7269.20772
538.028	7784.65949
538.234	7549.77988
538.44	7599.25114
538.646	7273.33671
538.853	7648.71012
539.059	7211.39266
539.265	7648.71012
539.471	7370.3426
539.677	7366.21568
539.883	7310.49363
540.09	7471.42511
540.296	7665.19372
540.502	7790.83684
540.708	7549.77988
540.914	7928.74879
541.12	7683.73616
541.326	7959.61191
541.532	7887.59077
541.738	8159.083
541.944	7998.69858
542.15	7914.34442
542.356	7879.35817
542.562	8011.04022
542.768	7811.42663
542.974	7957.55451
543.18	7990.47042
543.386	8105.63515
543.592	8175.52578
543.798	8226.90125
544.004	8101.52321
544.21	8467.17562
544.415	8048.06072
544.621	8495.90869
544.827	8206.35255
545.033	8311.13032
545.239	8311.13032
545.445	8514.37798
545.651	8200.18756
545.856	8549.26023
546.062	8337.83021
546.268	8475.38545
546.474	8270.0471
546.679	8276.21008
546.885	8177.58104
547.091	8426.12188
547.297	8376.84722
547.502	8692.83582
547.708	8497.96091
547.914	8495.90869
548.119	8676.4318
548.325	8502.06529
548.531	8422.01608
548.736	8674.38121
548.942	8440.49156
549.147	8586.18842
549.353	8625.16158
549.559	8621.05946
549.764	8561.5703
549.97	8942.85251
550.175	8631.31462
550.381	9022.71971
550.586	8662.07731
550.792	8867.05616
550.997	8725.64032
551.203	8961.28578
551.408	8787.13609
551.614	8815.82851
551.819	9024.76723
552.025	9161.91196
552.23	9010.43419
552.435	9114.84115
552.641	9352.15057
552.846	9143.49403
553.052	9217.15749
553.257	9323.52173
553.462	9235.56993
553.668	9401.22109
553.873	9073.90262
554.078	9425.75282
554.283	9321.47669
554.489	9364.41908
554.694	9679.11264
554.899	9503.42129
555.105	9348.06093
555.31	9470.72161
555.515	9393.04332
555.72	9681.15488
555.925	9372.59777
556.131	9601.49588
556.336	9429.84122
556.541	9675.0281
556.746	9658.68935
556.951	9938.35654
557.156	9585.15264
557.361	9858.77185
557.567	9736.28967
557.772	9885.30257
557.977	9746.49859
558.182	9795.49615
558.387	9740.37328
558.592	9893.46536
558.797	9928.15462
559.002	9589.23855
559.207	9679.11264
559.412	9838.3619
559.617	9540.20353
559.822	10185.13379
560.027	9875.09874
560.232	10150.47505
560.437	9956.71907
560.642	9985.28068
560.847	9981.20062
561.051	10050.55376
561.256	9724.03846
561.461	10097.45979
561.666	10017.91905
561.871	10001.60033
562.076	9928.15462
562.281	10368.55571
562.485	9956.71907
562.69	10181.0565
562.895	9926.11419
563.1	10248.3248
563.305	10217.75014
563.509	10121.92955
563.714	10044.43503
563.919	10172.90175
564.123	9962.83965
564.328	10160.66921
564.533	10307.42716
564.737	10217.75014
564.942	10095.42056
565.147	10232.0187
565.351	10409.30147
565.556	10354.29345
565.761	10395.04105
565.965	10684.20168
566.17	10327.80467
566.374	10492.81405
566.579	10649.59713
566.784	10476.52061
566.988	10376.70528
567.193	10580.37737
567.397	10327.80467
567.602	10663.84649
567.806	10362.44339
568.011	10588.52162
568.215	10777.82003
568.42	10582.41345
568.624	10800.20329
568.828	10413.37576
569.033	10555.94344
569.237	10802.23807
569.442	10735.08436
569.646	10718.80272
569.85	10714.73219
570.055	10932.43929
570.259	10682.16621
570.463	10973.11758
570.668	10724.90843
570.872	10777.82003
571.076	10824.61978
571.281	10920.23492
571.485	10914.13259
571.689	10910.0643
571.893	10606.84544
572.098	10867.34459
572.302	10932.43929
572.506	11048.36064
572.71	10804.27283
572.914	11028.02617
573.119	10999.55606
573.323	11194.73691
573.527	11107.32444
573.731	11257.74315
573.935	11347.15446
574.139	11361.37719
574.343	11255.71085
574.547	11023.95914
574.751	11239.45204
574.955	11469.04792
575.159	11103.25826
575.364	11336.99507
575.568	11345.12261
575.772	11422.32626
575.976	11306.51539
576.18	11426.38921
