Data from mixed_try1_USB4F045381__3__00151.txt Node

Date: Thu Apr 03 20:07:27 EDT 2025
User: mmckonesweet
Spectrometer: USB4F04538
Trigger mode: 4
Integration Time (sec): 2.700000E-3
Scans to average: 1
Electric dark correction enabled: true
Nonlinearity correction enabled: true
Boxcar width: 0
XAxis mode: Wavelengths
Number of Pixels in Spectrum: 3648
>>>>>Begin Spectral Data<<<<<
345.52	25.46587
345.736	25.46587
345.952	25.46587
346.168	-29.32529
346.384	19.14299
346.6	-23.00407
346.816	6.49786
347.032	10.7128
347.248	6.49786
347.464	54.97546
347.68	-44.07393
347.896	12.82031
348.112	4.39042
348.328	-23.00407
348.544	-52.50118
348.76	19.14299
348.975	27.57355
349.191	-18.7898
349.407	8.60532
349.623	-12.46822
349.839	-31.43231
350.055	-10.36097
350.27	-1.93175
350.486	-23.00407
350.702	19.14299
350.918	-35.64629
351.133	27.57355
351.349	-31.43231
351.565	-6.14641
351.781	-25.11117
351.996	-29.32529
352.212	36.00449
352.428	-8.2537
352.644	10.7128
352.859	25.46587
353.075	4.39042
353.291	31.78897
353.506	31.78897
353.722	61.29953
353.938	-20.89695
354.153	19.14299
354.369	-23.00407
354.584	6.49786
354.8	4.39042
355.016	-18.7898
355.231	23.35822
355.447	-54.60793
355.662	-48.28761
355.878	21.25059
356.093	27.57355
356.309	48.65159
356.524	-1.93175
356.74	-1.93175
356.955	2.283
357.171	-20.89695
357.386	12.82031
357.602	4.39042
357.817	40.22009
358.033	10.7128
358.248	23.35822
358.464	44.4358
358.679	-39.86016
358.895	14.92785
359.11	-84.09974
359.325	-48.28761
359.541	14.92785
359.756	-1.93175
359.972	-56.71465
360.187	-14.57544
360.402	10.7128
360.618	12.82031
360.833	63.4076
361.048	-12.46822
361.264	-48.28761
361.479	27.57355
361.694	-60.92802
361.909	-31.43231
362.125	-52.50118
362.34	6.49786
362.555	-46.18078
362.77	14.92785
362.986	-16.68263
363.201	-18.7898
363.416	29.68125
363.631	-6.14641
363.847	-31.43231
364.062	2.283
364.277	17.0354
364.492	-6.14641
364.707	10.7128
364.922	44.4358
365.138	2.283
365.353	-4.03909
365.568	19.14299
365.783	31.78897
365.998	-10.36097
366.213	-52.50118
366.428	31.78897
366.643	27.57355
366.858	82.38126
367.073	-35.64629
367.288	71.84011
367.503	-37.75323
367.718	10.7128
367.933	2.283
368.148	38.11228
368.363	33.89672
368.578	-12.46822
368.793	-23.00407
369.008	2.283
369.223	21.25059
369.438	-10.36097
369.653	-10.36097
369.868	-14.57544
370.083	25.46587
370.298	-12.46822
370.513	12.82031
370.728	-29.32529
370.943	-12.46822
371.157	-10.36097
371.372	27.57355
371.587	-18.7898
371.802	-16.68263
372.017	-29.32529
372.232	-23.00407
372.446	-31.43231
372.661	65.5157
372.876	61.29953
373.091	-16.68263
373.306	-12.46822
373.52	19.14299
373.735	-46.18078
373.95	-41.96706
374.165	-14.57544
374.379	-18.7898
374.594	-23.00407
374.809	12.82031
375.023	19.14299
375.238	40.22009
375.453	4.39042
375.667	-33.53931
375.882	-6.14641
376.097	19.14299
376.311	14.92785
376.526	-18.7898
376.741	52.86748
376.955	21.25059
377.17	80.27299
377.384	86.59788
377.599	14.92785
377.813	19.14299
378.028	-48.28761
378.242	4.39042
378.457	48.65159
378.672	12.82031
378.886	-1.93175
379.101	-48.28761
379.315	17.0354
379.53	-16.68263
379.744	31.78897
379.958	36.00449
380.173	-4.03909
380.387	33.89672
380.602	2.283
380.816	-25.11117
381.031	-41.96706
381.245	12.82031
381.459	21.25059
381.674	29.68125
381.888	10.7128
382.103	-1.93175
382.317	23.35822
382.531	-71.461
382.746	-14.57544
382.96	-23.00407
383.174	27.57355
383.388	-48.28761
383.603	6.49786
383.817	-23.00407
384.031	-12.46822
384.246	14.92785
384.46	-25.11117
384.674	2.283
384.888	50.75953
385.103	65.5157
385.317	78.16474
385.531	-12.46822
385.745	-35.64629
385.959	-16.68263
386.174	54.97546
386.388	-77.78048
386.602	54.97546
386.816	-12.46822
387.03	-10.36097
387.244	-6.14641
387.458	-12.46822
387.672	2.283
387.887	42.32793
388.101	36.00449
388.315	14.92785
388.529	78.16474
388.743	2.283
388.957	-14.57544
389.171	4.39042
389.385	-44.07393
389.599	-14.57544
389.813	-48.28761
390.027	36.00449
390.241	44.4358
390.455	21.25059
390.669	-14.57544
390.883	-60.92802
391.097	82.38126
391.311	23.35822
391.525	95.03138
391.738	48.65159
391.952	46.54368
392.166	12.82031
392.38	-6.14641
392.594	105.57375
392.808	4.39042
393.022	25.46587
393.236	38.11228
393.449	-31.43231
393.663	-56.71465
393.877	44.4358
394.091	-37.75323
394.305	31.78897
394.518	-20.89695
394.732	61.29953
394.946	12.82031
395.16	27.57355
395.373	54.97546
395.587	80.27299
395.801	61.29953
396.015	-1.93175
396.228	10.7128
396.442	38.11228
396.656	-14.57544
396.869	61.29953
397.083	63.4076
397.297	-27.21824
397.51	2.283
397.724	44.4358
397.938	48.65159
398.151	-4.03909
398.365	19.14299
398.578	71.84011
398.792	82.38126
399.005	12.82031
399.219	52.86748
399.433	-6.14641
399.646	12.82031
399.86	36.00449
400.073	78.16474
400.287	-4.03909
400.5	14.92785
400.714	-56.71465
400.927	-6.14641
401.141	48.65159
401.354	6.49786
401.567	10.7128
401.781	2.283
401.994	2.283
402.208	-25.11117
402.421	6.49786
402.635	36.00449
402.848	95.03138
403.061	6.49786
403.275	114.00805
403.488	-10.36097
403.701	137.20416
403.915	6.49786
404.128	-44.07393
404.341	42.32793
404.555	69.73195
404.768	48.65159
404.981	21.25059
405.195	-8.2537
405.408	114.00805
405.621	54.97546
405.834	52.86748
406.048	-31.43231
406.261	6.49786
406.474	54.97546
406.687	44.4358
406.9	54.97546
407.114	52.86748
407.327	105.57375
407.54	21.25059
407.753	63.4076
407.966	65.5157
408.179	-48.28761
408.392	36.00449
408.605	-39.86016
408.819	44.4358
409.032	78.16474
409.245	36.00449
409.458	14.92785
409.671	-4.03909
409.884	80.27299
410.097	-4.03909
410.31	-23.00407
410.523	63.4076
410.736	61.29953
410.949	107.68229
411.162	69.73195
411.375	-6.14641
411.588	46.54368
411.801	40.22009
412.014	12.82031
412.227	-20.89695
412.44	-8.2537
412.653	97.13981
412.865	76.05651
413.078	29.68125
413.291	21.25059
413.504	90.81458
413.717	73.9483
413.93	52.86748
414.143	109.79086
414.356	46.54368
414.568	80.27299
414.781	111.89944
414.994	27.57355
415.207	29.68125
415.42	17.0354
415.632	120.334
415.845	54.97546
416.058	19.14299
416.271	27.57355
416.483	10.7128
416.696	50.75953
416.909	86.59788
417.121	29.68125
417.334	14.92785
417.547	54.97546
417.759	67.62381
417.972	27.57355
418.185	111.89944
418.397	46.54368
418.61	2.283
418.823	107.68229
419.035	69.73195
419.248	154.07568
419.46	44.4358
419.673	90.81458
419.885	54.97546
420.098	14.92785
420.311	132.98649
420.523	59.19149
420.736	46.54368
420.948	78.16474
421.161	137.20416
421.373	36.00449
421.586	46.54368
421.798	120.334
422.01	48.65159
422.223	80.27299
422.435	57.08346
422.648	86.59788
422.86	97.13981
423.073	105.57375
423.285	78.16474
423.497	76.05651
423.71	164.62107
423.922	173.05775
424.134	71.84011
424.347	122.44269
424.559	128.76891
424.771	27.57355
424.984	139.31302
425.196	78.16474
425.408	92.92297
425.621	103.46523
425.833	202.58873
426.045	54.97546
426.257	38.11228
426.47	86.59788
426.682	61.29953
426.894	97.13981
427.106	44.4358
427.318	149.85767
427.531	130.87769
427.743	116.11668
427.955	111.89944
428.167	137.20416
428.379	179.38548
428.591	86.59788
428.804	179.38548
429.016	111.89944
429.228	88.70622
429.44	84.48956
429.652	189.93211
429.864	227.90414
430.076	219.46535
430.288	263.77245
430.5	213.13647
430.712	164.62107
430.924	154.07568
431.136	139.31302
431.348	177.27622
431.56	223.68471
431.772	221.57502
431.984	289.09456
432.196	238.45306
432.408	196.26033
432.62	213.13647
432.832	111.89944
433.044	213.13647
433.256	145.63975
433.468	175.16697
433.679	202.58873
433.891	198.36978
434.103	177.27622
434.315	251.11241
434.527	230.01389
434.739	173.05775
434.95	238.45306
435.162	297.53586
435.374	255.33235
435.586	217.35571
435.798	246.89255
436.009	316.52984
436.221	230.01389
436.433	263.77245
436.645	230.01389
436.856	240.56291
437.068	221.57502
437.28	263.77245
437.491	204.69824
437.703	278.54336
437.915	327.08269
438.126	324.97208
438.338	215.24608
438.55	318.64038
438.761	246.89255
438.973	246.89255
439.184	244.78265
439.396	377.74241
439.608	318.64038
439.819	293.31517
440.031	324.97208
440.242	316.52984
440.454	318.64038
440.665	322.8615
440.877	407.29842
441.088	314.41933
441.3	297.53586
441.511	331.30395
441.723	445.30366
441.934	386.18665
442.146	381.9645
442.357	381.9645
442.569	424.189
442.78	369.29844
442.991	291.20486
443.203	377.74241
443.414	331.30395
443.626	392.52001
443.837	476.97856
444.048	430.52323
444.26	356.63299
444.471	417.85491
444.682	362.96564
444.894	365.07655
445.105	398.85351
445.316	438.9691
445.528	424.189
445.739	468.53159
445.95	500.20897
446.161	479.09034
446.373	595.2603
446.584	525.55324
446.795	455.86158
447.006	510.76883
447.217	449.52678
447.429	462.19651
447.64	398.85351
447.851	504.43287
448.062	512.88085
448.273	534.00179
448.484	588.92269
448.695	618.49918
448.907	559.34876
449.118	593.14775
449.329	536.11396
449.54	576.24783
449.751	495.98513
449.962	576.24783
450.173	658.64259
450.384	572.02299
450.595	719.92228
450.806	637.51393
451.017	652.30387
451.228	698.79028
451.439	631.17557
451.65	597.37286
451.861	652.30387
452.072	728.37539
452.283	614.27381
452.494	772.75693
452.705	686.11162
452.915	859.41896
453.126	728.37539
453.337	707.24295
453.548	812.91545
453.759	785.43819
453.97	840.39428
454.181	941.86696
454.391	857.30507
454.602	1034.89837
454.813	815.02915
455.024	1013.75377
455.235	931.29604
455.445	872.10247
455.656	998.95292
455.867	905.92662
456.078	935.52439
456.288	855.19119
456.499	897.47039
456.71	1049.69993
456.921	903.81255
457.131	1136.4
457.342	979.92372
457.553	914.38297
457.763	977.8094
457.974	1227.33715
458.184	1263.29074
458.395	1229.45205
458.606	1155.43277
458.816	1292.90013
459.027	1388.07562
459.237	1333.08496
459.448	1447.29696
459.659	1364.81025
459.869	1404.99596
460.08	1438.83675
460.29	1464.21738
460.501	1603.80918
460.711	1443.06686
460.922	1447.29696
461.132	1599.57921
461.343	1569.96922
461.553	1601.69419
461.764	1618.61401
461.974	1677.83222
462.184	1671.48751
462.395	1785.6879
462.605	1942.16461
462.816	1656.68309
463.026	1794.14676
463.236	1889.30397
463.447	1948.50765
463.657	1851.24224
463.867	2176.8169
464.078	1933.70715
464.288	2039.4184
464.498	2145.11245
464.709	2193.72518
464.919	1995.02161
465.129	2185.27111
465.339	2288.82389
465.55	2538.09914
465.76	2255.01309
465.97	2318.40636
466.18	2341.64842
466.391	2685.89984
466.601	2347.98695
466.811	2749.22408
467.021	2666.90029
467.231	2814.64652
467.441	2360.66375
467.651	2951.77889
467.862	2814.64652
468.072	2987.6341
468.282	2913.80987
468.492	2877.94591
468.702	3198.45659
468.912	3339.61636
469.122	3312.23311
469.332	3221.63725
469.542	3221.63725
469.752	3482.80351
469.962	3402.79726
470.172	3581.72237
470.382	3718.45704
470.592	3743.69153
470.802	3623.80309
471.012	3880.32941
471.222	3752.10241
471.432	3806.76551
471.642	3951.76803
471.852	4207.91135
472.062	4163.84324
472.272	4247.77443
472.482	4222.59864
472.691	4610.37852
472.901	4283.43487
473.111	4235.18692
473.321	4558.01976
473.531	4694.12345
473.741	4700.40287
473.95	4963.95402
474.16	4643.88079
474.37	4922.14471
474.58	4878.23507
474.79	5296.00861
474.999	5318.95915
475.209	5020.38196
475.419	5348.16484
475.628	5689.94542
475.838	5231.31457
476.048	5389.87927
476.258	5544.14094
476.467	5908.43536
476.677	6151.58936
476.886	6031.09177
477.096	6236.72101
477.306	6379.90249
477.515	5925.07155
477.725	6301.06269
477.935	6305.21299
478.144	6394.42193
478.354	6278.23434
478.563	6692.8554
478.773	6649.36369
478.982	6943.25403
479.192	6883.27149
479.401	7063.16218
479.611	7023.89025
479.82	7112.75727
480.03	7366.73155
480.239	7438.93998
480.449	7401.80755
480.658	7748.10636
480.868	7517.30766
481.077	7678.0706
481.287	7851.05611
481.496	8038.29206
481.705	7832.529
481.915	8286.99488
482.124	8019.78176
482.333	8284.94067
482.543	8262.34312
482.752	8523.09906
482.961	8344.50467
483.171	8826.58725
483.38	8348.61193
483.589	8947.46096
483.799	8832.73488
484.008	9123.5397
484.217	9021.18405
484.426	9119.4463
484.636	9279.03833
484.845	9393.55444
485.054	9373.10893
485.263	9781.71646
485.472	9587.70634
485.682	9724.54894
485.891	9657.15754
486.1	9867.44563
486.309	10002.1103
486.518	10112.24384
486.727	9942.94728
486.936	10256.98706
487.146	10401.66204
487.355	10448.51435
487.564	10381.28932
487.773	10572.74196
487.982	10643.999
488.191	10825.12844
488.4	10623.64139
488.609	11105.79963
488.818	10892.26504
489.027	11085.46823
489.236	11012.2662
489.445	11231.8305
489.654	11164.75461
489.863	11676.69581
490.072	11274.50927
490.281	11558.92213
490.49	11674.66549
490.698	12070.41683
490.907	11703.08919
491.116	12192.1252
491.325	12076.50289
491.534	12186.04042
491.743	12001.43648
491.952	12157.64391
492.16	12224.57624
492.369	12538.85313
492.578	12599.66265
492.787	12619.93125
492.996	12782.05858
493.204	12522.6363
493.413	12818.53216
493.622	13055.56815
493.831	12747.60964
494.039	13205.45331
494.248	12698.97302
494.457	13264.18529
494.665	13326.96375
494.874	13235.83239
495.083	13533.49781
495.291	13677.23919
495.5	13717.72669
495.709	13689.38558
495.917	13333.03887
496.126	13472.75665
496.335	13624.6035
496.543	13713.678
496.752	13624.6035
496.96	14063.84739
497.169	13993.01027
497.377	14252.0585
497.586	13812.86741
497.794	14100.27679
498.003	14195.39467
498.211	14511.07585
498.42	14381.57044
498.628	14438.22979
498.837	14434.18274
499.045	14577.84991
499.254	14502.98193
499.462	14853.02819
499.671	14697.23075
499.879	14879.33125
500.087	15130.21857
500.296	15358.8487
500.504	15170.68399
500.713	15332.54599
500.921	15134.26512
501.129	15164.61417
501.338	14822.67838
501.546	15702.81562
501.754	15344.68569
501.962	15532.85313
502.171	15488.33999
502.379	15963.84303
502.587	15480.24673
502.795	15893.0197
503.004	15712.93263
503.212	16105.49479
503.42	15773.63517
503.628	16206.67924
503.837	15700.79223
504.045	15822.19789
504.253	16388.82222
504.461	16101.44749
504.669	16065.02212
504.877	16415.13302
505.085	16492.04347
505.294	16599.31838
505.502	16427.27658
505.71	16623.6079
505.918	16447.51601
506.126	16649.9219
506.334	16366.55949
506.542	17064.928
506.75	16789.59514
506.958	16678.26049
507.166	16846.27742
507.374	17295.76073
507.582	17216.78742
507.79	17107.44704
507.998	17172.24033
508.206	17220.83723
508.414	16937.3781
508.622	17212.73763
508.83	17392.96489
509.037	17585.36919
509.245	17030.50872
509.453	17739.31362
509.661	17247.16124
509.869	17546.88604
510.077	17540.80986
510.285	17879.09577
510.492	17761.59665
510.7	17958.11035
510.908	17747.4165
511.116	17877.06983
511.324	17646.13445
511.531	17822.37062
511.739	18114.1293
511.947	18160.73651
512.155	17826.42233
512.362	18091.83958
512.57	17729.18511
512.778	18148.57792
512.985	18160.73651
513.193	18412.04383
513.401	18146.5515
513.608	18515.42092
513.816	18176.94816
514.024	18466.77164
514.231	18365.42602
514.439	18410.01692
514.646	18718.15028
514.854	18825.61276
515.061	18470.82566
515.269	18438.39391
515.477	18882.3899
515.684	18979.72944
515.892	18748.56306
516.099	18898.61251
516.307	18764.78357
516.514	19093.304
516.722	19208.91979
516.929	19022.31841
517.136	18927.0027
517.344	18856.02869
517.551	19160.23784
517.759	19073.0219
517.966	19223.11914
518.173	19340.77862
518.381	19434.10465
518.588	19537.58507
518.796	19671.517
519.003	19967.85552
519.21	19689.78186
519.418	19708.04706
519.625	19539.6142
519.832	19655.28186
520.039	19998.30633
520.247	19874.47893
520.454	19982.06578
520.661	20231.79398
520.868	20313.02012
521.076	20625.80336
521.283	20404.40755
521.49	20402.37662
521.697	20629.86614
521.904	20601.42708
522.112	20463.30617
522.319	20794.4224
522.526	20544.55142
522.733	20688.77821
522.94	20611.58379
523.147	20609.55244
523.354	20469.39933
523.561	20967.13411
523.768	20798.48586
523.975	21186.62237
524.183	20887.88621
524.39	21280.12252
524.597	21141.90794
524.804	21367.53255
525.011	21219.14319
525.218	21282.15522
525.425	21215.07803
525.632	21206.94776
525.838	21406.15795
526.045	21566.77373
526.252	21696.91092
526.459	21674.54245
526.666	21825.03034
526.873	21981.64152
527.08	21745.7165
527.287	21951.13107
527.494	21493.57865
527.701	21999.9482
527.907	22113.86332
528.114	21942.9951
528.321	21945.02908
528.528	22122.00057
528.735	22345.79811
528.941	22683.6122
529.148	22060.97269
529.355	22467.8882
529.562	22087.41769
529.768	22537.07834
529.975	21989.77779
530.182	22817.95084
530.388	22632.73031
530.595	22944.16138
530.802	22459.74845
531.008	23117.21298
531.215	22938.05412
531.422	23188.47646
531.628	23084.63673
531.835	22966.55493
532.042	22854.59126
532.248	23216.98297
532.455	22944.16138
532.661	23320.83346
532.868	23371.74359
533.074	23766.87199
533.281	23294.36097
533.487	23449.13076
533.694	23292.32465
533.9	23970.59025
534.107	23192.54878
534.313	23738.35376
534.52	23897.24835
534.726	24076.53503
534.933	23880.95066
535.139	23717.98395
535.345	23740.39076
535.552	24162.11132
535.758	24062.2728
535.965	24231.39089
536.171	24100.9849
536.377	24457.58981
536.584	24592.10161
536.79	24520.76822
536.996	24510.57799
537.203	24078.57251
537.409	24394.41388
537.615	24388.30022
537.821	24447.39998
538.028	25022.20334
538.234	24769.42921
538.44	25032.39659
538.646	24371.99722
538.853	24753.12245
539.059	25069.09276
539.265	24997.73976
539.471	24871.34992
539.677	24618.59765
539.883	25062.97668
540.09	25103.75093
540.296	25134.33221
540.502	25385.11715
540.708	25115.98338
540.914	25330.06402
541.12	25224.04014
541.326	25919.41246
541.532	25876.5824
541.738	25737.90023
541.944	25580.87379
542.15	25693.03436
542.356	25637.97297
542.562	26135.61442
542.768	25819.47692
542.974	26478.31361
543.18	26003.03536
543.386	26192.72767
543.592	26249.84225
543.798	26094.82007
544.004	26162.13112
544.21	26510.95403
544.415	25982.63925
544.621	26459.95355
544.827	26408.95407
545.033	26594.59693
545.239	26478.31361
545.445	27155.68086
545.651	26488.51369
545.856	26827.17847
546.062	26704.76471
546.268	26570.11581
546.474	26282.47975
546.679	26280.4399
546.885	26580.31625
547.091	26600.71725
547.297	26455.87356
547.502	27010.80889
547.708	27006.72809
547.914	27029.17256
548.119	27253.62632
548.325	27116.91163
548.531	26816.97712
548.736	27223.01804
548.942	27104.66882
549.147	26923.07292
549.353	27174.0454
549.559	27700.53995
549.764	27218.93696
549.97	27280.15375
550.175	27498.50309
550.381	28392.44934
550.586	27296.47842
550.792	28069.95044
550.997	28000.55555
551.203	28414.9028
551.408	27825.03317
551.614	27804.62414
551.819	27806.66504
552.025	27792.37879
552.23	27982.18653
552.435	28223.03195
552.641	28231.19647
552.846	28082.19673
553.052	28316.925
553.257	28543.5024
553.462	28465.93389
553.668	28314.88383
553.873	28570.03935
554.078	28802.75559
554.283	28766.01002
554.489	29010.98686
554.694	28902.78691
554.899	28806.83845
555.105	28949.74125
555.31	28874.20628
555.515	28725.182
555.72	29296.81208
555.925	29098.77387
556.131	29117.14814
556.336	28898.70395
556.541	29157.98014
556.746	29629.62017
556.951	28955.86577
557.156	29527.5288
557.361	29125.3145
557.567	29413.18963
557.772	29327.43742
557.977	29441.77411
558.182	29396.85573
558.387	29343.77103
558.592	29345.81274
558.797	29486.693
559.002	29705.16951
559.207	29519.36161
559.412	29654.1225
559.617	29380.5219
559.822	29560.19775
560.027	29739.88187
560.232	29841.97887
560.437	29274.35364
560.642	29572.44868
560.847	29496.90191
561.051	29558.15593
561.256	29972.66707
561.461	30199.34046
561.666	30252.4372
561.871	29976.75115
562.076	29991.04546
562.281	30254.4794
562.485	29570.40685
562.69	29850.14675
562.895	29858.31464
563.1	29974.70911
563.305	29986.96137
563.509	30720.13291
563.714	30178.91884
563.919	30517.9332
564.123	30205.46696
564.328	30221.80437
564.533	30458.70536
564.737	29925.70047
564.942	30405.60543
565.147	30769.15296
565.351	30746.68534
565.556	30344.33732
565.761	30507.72143
565.965	30407.64772
566.17	30221.80437
566.374	30599.62852
566.579	30869.23799
566.784	30511.80613
566.988	30571.03493
567.193	30863.11024
567.397	30626.17994
567.602	30777.32304
567.806	30354.5486
568.011	30769.15296
568.215	30785.49315
568.42	30650.68914
568.624	30852.89735
568.828	31012.2224
569.033	30897.83432
569.237	31420.78932
569.442	31206.28405
569.646	31006.09436
569.85	31618.96725
