Data from mixed_try1_USB4F045381__9__00157.txt Node

Date: Thu Apr 03 20:08:19 EDT 2025
User: mmckonesweet
Spectrometer: USB4F04538
Trigger mode: 4
Integration Time (sec): 2.700000E-3
Scans to average: 1
Electric dark correction enabled: true
Nonlinearity correction enabled: true
Boxcar width: 0
XAxis mode: Wavelengths
Number of Pixels in Spectrum: 3648
>>>>>Begin Spectral Data<<<<<
345.52	36.00449
345.736	36.00449
345.952	36.00449
346.168	-75.67402
346.384	-6.14641
346.6	-39.86016
346.816	48.65159
347.032	-1.93175
347.248	6.49786
347.464	-10.36097
347.68	-14.57544
347.896	-29.32529
348.112	-23.00407
348.328	23.35822
348.544	36.00449
348.76	0.17561
348.975	4.39042
349.191	8.60532
349.407	8.60532
349.623	17.0354
349.839	-52.50118
350.055	0.17561
350.27	63.4076
350.486	-23.00407
350.702	-27.21824
350.918	-92.52504
351.133	-39.86016
351.349	40.22009
351.565	59.19149
351.781	25.46587
351.996	-20.89695
352.212	-56.71465
352.428	-25.11117
352.644	-35.64629
352.859	29.68125
353.075	-60.92802
353.291	-27.21824
353.506	-25.11117
353.722	42.32793
353.938	0.17561
354.153	-1.93175
354.369	-67.24789
354.584	23.35822
354.8	57.08346
355.016	-27.21824
355.231	-8.2537
355.447	2.283
355.662	-6.14641
355.878	8.60532
356.093	-41.96706
356.309	-18.7898
356.524	27.57355
356.74	23.35822
356.955	-33.53931
357.171	0.17561
357.386	6.49786
357.602	17.0354
357.817	-63.03467
358.033	-25.11117
358.248	-35.64629
358.464	36.00449
358.679	8.60532
358.895	23.35822
359.11	-39.86016
359.325	54.97546
359.541	-77.78048
359.756	-27.21824
359.972	14.92785
360.187	-1.93175
360.402	-20.89695
360.618	19.14299
360.833	12.82031
361.048	10.7128
361.264	-16.68263
361.479	48.65159
361.694	6.49786
361.909	-1.93175
362.125	-88.31244
362.34	-31.43231
362.555	-37.75323
362.77	-56.71465
362.986	-6.14641
363.201	23.35822
363.416	-41.96706
363.631	38.11228
363.847	-25.11117
364.062	-27.21824
364.277	-33.53931
364.492	82.38126
364.707	-1.93175
364.922	46.54368
365.138	78.16474
365.353	-18.7898
365.568	17.0354
365.783	36.00449
365.998	59.19149
366.213	-35.64629
366.428	-58.82135
366.643	23.35822
366.858	-18.7898
367.073	2.283
367.288	-1.93175
367.503	-44.07393
367.718	2.283
367.933	-18.7898
368.148	-35.64629
368.363	-16.68263
368.578	21.25059
368.793	-14.57544
369.008	6.49786
369.223	-35.64629
369.438	31.78897
369.653	-41.96706
369.868	-23.00407
370.083	-10.36097
370.298	57.08346
370.513	-46.18078
370.728	14.92785
370.943	40.22009
371.157	67.62381
371.372	-86.2061
371.587	-29.32529
371.802	92.92297
372.017	-8.2537
372.232	17.0354
372.446	107.68229
372.661	-56.71465
372.876	21.25059
373.091	-31.43231
373.306	-6.14641
373.52	-1.93175
373.735	14.92785
373.95	-14.57544
374.165	0.17561
374.379	-10.36097
374.594	33.89672
374.809	6.49786
375.023	-23.00407
375.238	-1.93175
375.453	-8.2537
375.667	-1.93175
375.882	-16.68263
376.097	8.60532
376.311	44.4358
376.526	-18.7898
376.741	-10.36097
376.955	-10.36097
377.17	-8.2537
377.384	95.03138
377.599	-23.00407
377.813	-4.03909
378.028	6.49786
378.242	-8.2537
378.457	-81.99334
378.672	10.7128
378.886	42.32793
379.101	65.5157
379.315	-6.14641
379.53	-65.14129
379.744	-6.14641
379.958	0.17561
380.173	40.22009
380.387	-44.07393
380.602	-27.21824
380.816	-48.28761
381.031	14.92785
381.245	-18.7898
381.459	29.68125
381.674	44.4358
381.888	2.283
382.103	31.78897
382.317	-12.46822
382.531	48.65159
382.746	21.25059
382.96	48.65159
383.174	-27.21824
383.388	10.7128
383.603	-1.93175
383.817	65.5157
384.031	-8.2537
384.246	-41.96706
384.46	-1.93175
384.674	-39.86016
384.888	76.05651
385.103	-69.35446
385.317	33.89672
385.531	23.35822
385.745	-12.46822
385.959	31.78897
386.174	31.78897
386.388	-27.21824
386.602	-12.46822
386.816	-39.86016
387.03	-35.64629
387.244	-1.93175
387.458	76.05651
387.672	-23.00407
387.887	-31.43231
388.101	-100.94993
388.315	31.78897
388.529	-10.36097
388.743	17.0354
388.957	17.0354
389.171	17.0354
389.385	-14.57544
389.599	-18.7898
389.813	-27.21824
390.027	31.78897
390.241	-4.03909
390.455	-10.36097
390.669	57.08346
390.883	25.46587
391.097	8.60532
391.311	-18.7898
391.525	-4.03909
391.738	-52.50118
391.952	-23.00407
392.166	-41.96706
392.38	-67.24789
392.594	-23.00407
392.808	-18.7898
393.022	-23.00407
393.236	-8.2537
393.449	-1.93175
393.663	0.17561
393.877	6.49786
394.091	-50.3944
394.305	-27.21824
394.518	4.39042
394.732	17.0354
394.946	59.19149
395.16	23.35822
395.373	14.92785
395.587	99.24826
395.801	23.35822
396.015	61.29953
396.228	-35.64629
396.442	-39.86016
396.656	-1.93175
396.869	12.82031
397.083	40.22009
397.297	-12.46822
397.51	-6.14641
397.724	17.0354
397.938	-33.53931
398.151	-46.18078
398.365	-31.43231
398.578	-8.2537
398.792	73.9483
399.005	-27.21824
399.219	-90.41875
399.433	-39.86016
399.646	48.65159
399.86	-56.71465
400.073	48.65159
400.287	-31.43231
400.5	-41.96706
400.714	-44.07393
400.927	23.35822
401.141	-81.99334
401.354	-31.43231
401.567	29.68125
401.781	59.19149
401.994	57.08346
402.208	14.92785
402.421	-18.7898
402.635	6.49786
402.848	19.14299
403.061	4.39042
403.275	6.49786
403.488	-37.75323
403.701	2.283
403.915	-10.36097
404.128	14.92785
404.341	-33.53931
404.555	33.89672
404.768	-10.36097
404.981	6.49786
405.195	25.46587
405.408	-60.92802
405.621	23.35822
405.834	-10.36097
406.048	6.49786
406.261	-52.50118
406.474	-52.50118
406.687	0.17561
406.9	50.75953
407.114	-58.82135
407.327	-56.71465
407.54	29.68125
407.753	48.65159
407.966	12.82031
408.179	-8.2537
408.392	-6.14641
408.605	-33.53931
408.819	-18.7898
409.032	-52.50118
409.245	-67.24789
409.458	40.22009
409.671	-50.3944
409.884	-41.96706
410.097	-12.46822
410.31	-4.03909
410.523	-33.53931
410.736	-6.14641
410.949	-4.03909
411.162	50.75953
411.375	27.57355
411.588	44.4358
411.801	10.7128
412.014	33.89672
412.227	19.14299
412.44	65.5157
412.653	-52.50118
412.865	2.283
413.078	-6.14641
413.291	-46.18078
413.504	-8.2537
413.717	-12.46822
413.93	-10.36097
414.143	36.00449
414.356	21.25059
414.568	-52.50118
414.781	40.22009
414.994	-44.07393
415.207	-41.96706
415.42	-103.05609
415.632	27.57355
415.845	2.283
416.058	-25.11117
416.271	57.08346
416.483	-39.86016
416.696	-1.93175
416.909	-18.7898
417.121	10.7128
417.334	-58.82135
417.547	-41.96706
417.759	-56.71465
417.972	14.92785
418.185	-69.35446
418.397	-1.93175
418.61	-94.6313
418.823	-14.57544
419.035	31.78897
419.248	-16.68263
419.46	-8.2537
419.673	-27.21824
419.885	-84.09974
420.098	6.49786
420.311	95.03138
420.523	2.283
420.736	-1.93175
420.948	25.46587
421.161	-18.7898
421.373	-20.89695
421.586	-33.53931
421.798	-35.64629
422.01	-44.07393
422.223	21.25059
422.435	-35.64629
422.648	-69.35446
422.86	21.25059
423.073	-1.93175
423.285	23.35822
423.497	-6.14641
423.71	-18.7898
423.922	40.22009
424.134	52.86748
424.347	40.22009
424.559	23.35822
424.771	-10.36097
424.984	29.68125
425.196	19.14299
425.408	0.17561
425.621	8.60532
425.833	27.57355
426.045	21.25059
426.257	-23.00407
426.47	-6.14641
426.682	-14.57544
426.894	-35.64629
427.106	-73.56752
427.318	-60.92802
427.531	-44.07393
427.743	29.68125
427.955	-8.2537
428.167	-33.53931
428.379	-1.93175
428.591	-29.32529
428.804	63.4076
429.016	25.46587
429.228	10.7128
429.44	25.46587
429.652	6.49786
429.864	-52.50118
430.076	33.89672
430.288	-23.00407
430.5	-25.11117
430.712	44.4358
430.924	10.7128
431.136	-56.71465
431.348	42.32793
431.56	-16.68263
431.772	10.7128
431.984	46.54368
432.196	2.283
432.408	-10.36097
432.62	25.46587
432.832	40.22009
433.044	23.35822
433.256	65.5157
433.468	-46.18078
433.679	0.17561
433.891	-58.82135
434.103	38.11228
434.315	65.5157
434.527	21.25059
434.739	10.7128
434.95	36.00449
435.162	-35.64629
435.374	19.14299
435.586	40.22009
435.798	42.32793
436.009	23.35822
436.221	-63.03467
436.433	40.22009
436.645	-41.96706
436.856	14.92785
437.068	-44.07393
437.28	-39.86016
437.491	-1.93175
437.703	0.17561
437.915	-33.53931
438.126	23.35822
438.338	17.0354
438.55	33.89672
438.761	6.49786
438.973	-6.14641
439.184	-18.7898
439.396	6.49786
439.608	31.78897
439.819	25.46587
440.031	-18.7898
440.242	-10.36097
440.454	40.22009
440.665	-39.86016
440.877	14.92785
441.088	-46.18078
441.3	19.14299
441.511	-52.50118
441.723	31.78897
441.934	-23.00407
442.146	-44.07393
442.357	-14.57544
442.569	-10.36097
442.78	-1.93175
442.991	-27.21824
443.203	57.08346
443.414	-23.00407
443.626	-37.75323
443.837	-33.53931
444.048	-23.00407
444.26	0.17561
444.471	-56.71465
444.682	2.283
444.894	42.32793
445.105	25.46587
445.316	25.46587
445.528	-41.96706
445.739	-48.28761
445.95	57.08346
446.161	42.32793
446.373	92.92297
446.584	-48.28761
446.795	-44.07393
447.006	14.92785
447.217	27.57355
447.429	-18.7898
447.64	6.49786
447.851	44.4358
448.062	33.89672
448.273	-8.2537
448.484	-52.50118
448.695	23.35822
448.907	31.78897
449.118	10.7128
449.329	40.22009
449.54	-14.57544
449.751	6.49786
449.962	-4.03909
450.173	25.46587
450.384	73.9483
450.595	-56.71465
450.806	14.92785
451.017	-39.86016
451.228	44.4358
451.439	-1.93175
451.65	-23.00407
451.861	19.14299
452.072	-27.21824
452.283	-27.21824
452.494	-4.03909
452.705	-4.03909
452.915	105.57375
453.126	10.7128
453.337	-35.64629
453.548	59.19149
453.759	-44.07393
453.97	-23.00407
454.181	25.46587
454.391	-18.7898
454.602	-10.36097
454.813	46.54368
455.024	-52.50118
455.235	10.7128
455.445	-23.00407
455.656	36.00449
455.867	-31.43231
456.078	-14.57544
456.288	40.22009
456.499	-100.94993
456.71	-46.18078
456.921	31.78897
457.131	6.49786
457.342	-12.46822
457.553	6.49786
457.763	40.22009
457.974	50.75953
458.184	-33.53931
458.395	25.46587
458.606	-58.82135
458.816	-56.71465
459.027	-1.93175
459.237	14.92785
459.448	-8.2537
459.659	-25.11117
459.869	21.25059
460.08	57.08346
460.29	6.49786
460.501	-50.3944
460.711	-1.93175
460.922	10.7128
461.132	-20.89695
461.343	36.00449
461.553	48.65159
461.764	-56.71465
461.974	14.92785
462.184	6.49786
462.395	48.65159
462.605	6.49786
462.816	-10.36097
463.026	31.78897
463.236	-16.68263
463.447	-18.7898
463.657	54.97546
463.867	23.35822
464.078	-18.7898
464.288	69.73195
464.498	10.7128
464.709	-39.86016
464.919	-14.57544
465.129	52.86748
465.339	19.14299
465.55	-1.93175
465.76	-77.78048
465.97	-69.35446
466.18	-31.43231
466.391	-14.57544
466.601	14.92785
466.811	-16.68263
467.021	-79.88693
467.231	-18.7898
467.441	59.19149
467.651	46.54368
467.862	14.92785
468.072	-10.36097
468.282	31.78897
468.492	8.60532
468.702	50.75953
468.912	23.35822
469.122	23.35822
469.332	65.5157
469.542	61.29953
469.752	33.89672
469.962	0.17561
470.172	10.7128
470.382	-69.35446
470.592	14.92785
470.802	63.4076
471.012	-8.2537
471.222	-67.24789
471.432	33.89672
471.642	-44.07393
471.852	-1.93175
472.062	-48.28761
472.272	-31.43231
472.482	69.73195
472.691	-10.36097
472.901	6.49786
473.111	-6.14641
473.321	-8.2537
473.531	-56.71465
473.741	-41.96706
473.95	27.57355
474.16	-27.21824
474.37	-10.36097
474.58	40.22009
474.79	14.92785
474.999	-16.68263
475.209	6.49786
475.419	6.49786
475.628	-14.57544
475.838	38.11228
476.048	0.17561
476.258	65.5157
476.467	61.29953
476.677	27.57355
476.886	10.7128
477.096	-1.93175
477.306	0.17561
477.515	48.65159
477.725	-23.00407
477.935	42.32793
478.144	12.82031
478.354	-25.11117
478.563	27.57355
478.773	23.35822
478.982	8.60532
479.192	17.0354
479.401	82.38126
479.611	-18.7898
479.82	8.60532
480.03	-16.68263
480.239	-14.57544
480.449	-27.21824
480.658	42.32793
480.868	40.22009
481.077	-50.3944
481.287	99.24826
481.496	-10.36097
481.705	88.70622
481.915	31.78897
482.124	42.32793
482.333	-18.7898
482.543	-27.21824
482.752	6.49786
482.961	25.46587
483.171	57.08346
483.38	46.54368
483.589	14.92785
483.799	61.29953
484.008	33.89672
484.217	31.78897
484.426	44.4358
484.636	54.97546
484.845	137.20416
485.054	40.22009
485.263	36.00449
485.472	-1.93175
485.682	-18.7898
485.891	-8.2537
486.1	73.9483
486.309	50.75953
486.518	76.05651
486.727	6.49786
486.936	44.4358
487.146	-16.68263
487.355	-41.96706
487.564	-37.75323
487.773	-10.36097
487.982	-119.90439
488.191	14.92785
488.4	14.92785
488.609	67.62381
488.818	17.0354
489.027	-6.14641
489.236	-29.32529
489.445	82.38126
489.654	71.84011
489.863	14.92785
490.072	73.9483
490.281	27.57355
490.49	2.283
490.698	23.35822
490.907	8.60532
491.116	10.7128
491.325	0.17561
491.534	27.57355
491.743	-6.14641
491.952	8.60532
492.16	17.0354
492.369	33.89672
492.578	-37.75323
492.787	19.14299
492.996	124.55141
493.204	84.48956
493.413	10.7128
493.622	10.7128
493.831	-18.7898
494.039	44.4358
494.248	6.49786
494.457	44.4358
494.665	-20.89695
494.874	-56.71465
495.083	65.5157
495.291	90.81458
495.5	69.73195
495.709	65.5157
495.917	-12.46822
496.126	44.4358
496.335	6.49786
496.543	48.65159
496.752	48.65159
496.96	73.9483
497.169	76.05651
497.377	-1.93175
497.586	44.4358
497.794	23.35822
498.003	2.283
498.211	-39.86016
498.42	59.19149
498.628	31.78897
498.837	50.75953
499.045	17.0354
499.254	88.70622
499.462	6.49786
499.671	65.5157
499.879	31.78897
500.087	97.13981
500.296	61.29953
500.504	69.73195
500.713	86.59788
500.921	-8.2537
501.129	78.16474
501.338	-35.64629
501.546	19.14299
501.754	-1.93175
501.962	82.38126
502.171	73.9483
502.379	141.42191
502.587	61.29953
502.795	8.60532
503.004	2.283
503.212	46.54368
503.42	40.22009
503.628	17.0354
503.837	160.40285
504.045	23.35822
504.253	61.29953
504.461	101.35674
504.669	25.46587
504.877	14.92785
505.085	31.78897
505.294	124.55141
505.502	40.22009
505.71	107.68229
505.918	40.22009
506.126	-37.75323
506.334	-33.53931
506.542	90.81458
506.75	99.24826
506.958	48.65159
507.166	76.05651
507.374	38.11228
507.582	61.29953
507.79	44.4358
507.998	118.22533
508.206	67.62381
508.414	82.38126
508.622	65.5157
508.83	99.24826
509.037	21.25059
509.245	84.48956
509.453	162.51195
509.661	84.48956
509.869	52.86748
510.077	84.48956
510.285	71.84011
510.492	95.03138
510.7	90.81458
510.908	120.334
511.116	52.86748
511.324	99.24826
511.531	78.16474
511.739	57.08346
511.947	27.57355
512.155	109.79086
512.362	65.5157
512.57	61.29953
512.778	29.68125
512.985	147.7487
513.193	67.62381
513.401	40.22009
513.608	154.07568
513.816	107.68229
514.024	99.24826
514.231	99.24826
514.439	99.24826
514.646	118.22533
514.854	92.92297
515.061	116.11668
515.269	111.89944
515.477	27.57355
515.684	137.20416
515.892	101.35674
516.099	80.27299
516.307	114.00805
516.514	90.81458
516.722	50.75953
516.929	101.35674
517.136	33.89672
517.344	175.16697
517.551	128.76891
517.759	149.85767
517.966	185.7134
518.173	82.38126
518.381	158.29377
518.588	158.29377
518.796	137.20416
519.003	95.03138
519.21	183.60407
519.418	107.68229
519.625	141.42191
519.832	107.68229
520.039	124.55141
520.247	82.38126
520.454	132.98649
520.661	105.57375
520.868	78.16474
521.076	132.98649
521.283	151.96666
521.49	76.05651
521.697	135.09531
521.904	90.81458
522.112	126.66015
522.319	57.08346
522.526	213.13647
522.733	137.20416
522.94	65.5157
523.147	132.98649
523.354	132.98649
523.561	166.73021
523.768	111.89944
523.975	65.5157
524.183	132.98649
524.39	122.44269
524.597	202.58873
524.804	114.00805
525.011	120.334
525.218	238.45306
525.425	162.51195
525.632	116.11668
525.838	166.73021
526.045	107.68229
526.252	158.29377
526.459	196.26033
526.666	116.11668
526.873	217.35571
527.08	90.81458
527.287	95.03138
527.494	202.58873
527.701	126.66015
527.907	132.98649
528.114	128.76891
528.321	168.83937
528.528	211.02688
528.735	213.13647
528.941	164.62107
529.148	143.53082
529.355	208.91732
529.562	168.83937
529.768	187.82274
529.975	101.35674
530.182	236.34324
530.388	107.68229
530.595	196.26033
530.802	189.93211
531.008	238.45306
531.215	272.21286
531.422	227.90414
531.628	118.22533
531.835	141.42191
532.042	202.58873
532.248	242.67277
532.455	166.73021
532.661	225.79441
532.868	183.60407
533.074	261.6624
533.281	223.68471
533.487	244.78265
533.694	181.49477
533.9	295.42551
534.107	217.35571
534.313	208.91732
534.52	352.41131
534.726	232.12365
534.933	301.75662
535.139	208.91732
535.345	221.57502
535.552	369.29844
535.758	234.23344
535.965	280.65356
536.171	276.43317
536.377	230.01389
536.584	230.01389
536.79	253.22237
536.996	293.31517
537.203	238.45306
537.409	213.13647
537.615	272.21286
537.821	246.89255
538.028	305.97745
538.234	242.67277
538.44	343.96815
538.646	244.78265
538.853	320.75093
539.059	350.30049
539.265	356.63299
539.471	291.20486
539.677	284.87402
539.883	346.07892
540.09	297.53586
540.296	301.75662
540.502	297.53586
540.708	234.23344
540.914	352.41131
541.12	289.09456
541.326	318.64038
541.532	352.41131
541.738	272.21286
541.944	386.18665
542.15	310.19835
542.356	337.63597
542.562	348.18969
542.768	386.18665
542.974	428.41181
543.18	293.31517
543.386	386.18665
543.592	396.74233
543.798	375.63139
544.004	360.85473
544.21	411.52097
544.415	386.18665
544.621	411.52097
544.827	394.63116
545.033	472.75504
545.239	388.29776
545.445	493.87323
545.651	377.74241
545.856	381.9645
546.062	472.75504
546.268	424.189
546.474	356.63299
546.679	491.76134
546.885	327.08269
547.091	443.19213
547.297	447.41521
547.502	447.41521
547.708	428.41181
547.914	453.74996
548.119	346.07892
548.325	438.9691
548.531	394.63116
548.736	470.64331
548.942	352.41131
549.147	521.32906
549.353	514.99288
549.559	445.30366
549.764	441.0806
549.97	476.97856
550.175	398.85351
550.381	567.79819
550.586	495.98513
550.792	576.24783
550.997	487.53762
551.203	658.64259
551.408	500.20897
551.614	584.69769
551.819	542.45056
552.025	538.22615
552.23	605.82323
552.435	652.30387
552.641	534.00179
552.846	529.77749
553.052	487.53762
553.257	658.64259
553.462	523.44114
553.668	622.72459
553.873	521.32906
554.078	648.07811
554.283	574.1354
554.489	622.72459
554.694	531.88963
554.899	588.92269
555.105	531.88963
555.31	690.3378
555.515	631.17557
555.72	690.3378
555.925	605.82323
556.131	648.07811
556.336	599.48543
556.541	675.54638
556.746	639.62674
556.951	664.98142
557.156	675.54638
557.361	679.77244
557.567	768.52992
557.772	588.92269
557.977	643.8524
558.182	745.2821
558.387	703.0166
558.592	724.14881
558.797	724.14881
559.002	741.05536
559.207	652.30387
559.412	772.75693
559.617	705.12977
559.822	715.6958
560.027	641.73957
560.232	730.48869
560.437	654.41676
560.642	779.09752
560.847	770.64342
561.051	817.14286
561.256	791.77895
561.461	796.00618
561.666	764.30296
561.871	889.01429
562.076	692.4509
562.281	872.10247
562.485	757.96258
562.69	859.41896
562.895	726.26209
563.1	791.77895
563.305	791.77895
563.509	971.46647
563.714	745.2821
563.919	924.95358
564.123	846.73576
564.328	732.602
564.533	817.14286
564.737	855.19119
564.942	791.77895
565.147	971.46647
565.351	800.23344
565.556	960.89506
565.761	886.90028
565.965	905.92662
566.17	914.38297
566.374	893.24232
566.579	884.78628
566.784	929.18188
566.988	1003.18171
567.193	1068.73092
567.397	903.81255
567.602	977.8094
567.806	819.25658
568.011	935.52439
568.215	886.90028
568.42	927.06773
568.624	937.63857
568.828	1020.09709
569.033	927.06773
569.237	1005.29611
569.442	918.61119
569.646	929.18188
569.85	935.52439
570.055	1197.72897
570.259	994.72417
570.463	1089.87697
570.668	920.72532
570.872	1087.76234
571.076	1041.24186
571.281	986.26673
571.485	1047.58541
571.689	1106.79417
571.893	1053.929
572.098	1087.76234
572.302	1104.6795
572.506	1024.326
572.71	1030.6694
572.914	1130.05582
573.119	1062.38721
573.323	1157.54755
573.527	1172.35107
573.731	1227.33715
573.935	1108.90884
574.139	1132.17054
574.343	1132.17054
574.547	1125.82639
574.751	1155.43277
574.955	1366.92527
575.159	1079.30388
575.364	1214.64785
575.568	1108.90884
575.772	1199.84382
575.976	1140.62947
576.18	1256.94593
576.383	1231.56694
576.587	1400.76588
576.791	1070.8455
576.995	1273.86547
577.199	1168.12147
577.403	1421.91635
577.607	1307.70499
577.811	1345.77504
578.015	1191.38445
578.219	1350.00508
578.422	1273.86547
578.626	1364.81025
578.83	1157.54755
579.034	1400.76588
579.238	1201.95867
579.442	1347.89006
579.645	1189.26961
579.849	1299.24506
580.053	1280.21034
580.257	1512.86348
580.46	1248.48622
580.664	1468.44748
580.868	1288.67019
581.071	1506.51835
581.275	1362.69522
581.479	1453.64212
581.682	1362.69522
581.886	1498.05817
582.09	1512.86348
582.293	1468.44748
582.497	1381.73051
582.7	1582.65925
582.904	1502.28826
583.107	1677.83222
583.311	1337.31498
583.515	1514.97852
