Data from mixed_try1_USB4F045381__31__00179.txt Node

Date: Thu Apr 03 20:13:14 EDT 2025
User: mmckonesweet
Spectrometer: USB4F04538
Trigger mode: 4
Integration Time (sec): 2.700000E-3
Scans to average: 1
Electric dark correction enabled: true
Nonlinearity correction enabled: true
Boxcar width: 0
XAxis mode: Wavelengths
Number of Pixels in Spectrum: 3648
>>>>>Begin Spectral Data<<<<<
345.52	22.83131
345.736	22.83131
345.952	22.83131
346.168	39.69314
346.384	33.36978
346.6	-53.02787
346.816	-69.8811
347.032	-10.88778
347.248	33.36978
347.464	-25.63794
347.68	22.83131
347.896	18.61609
348.112	-69.8811
348.328	14.40096
348.544	136.67694
348.76	-19.31659
348.975	22.83131
349.191	-53.02787
349.407	64.98867
349.623	-10.88778
349.839	67.09678
350.055	67.09678
350.27	-0.35123
350.486	-8.78052
350.702	24.93896
350.918	-15.10224
351.133	-36.17303
351.349	-23.53085
351.565	31.26204
351.781	43.90883
351.996	-69.8811
352.212	-53.02787
352.428	-40.38689
352.644	-19.31659
352.859	27.04663
353.075	64.98867
353.291	119.80683
353.506	18.61609
353.722	-86.73269
353.938	39.69314
354.153	18.61609
354.369	10.18593
354.584	18.61609
354.8	-34.06606
355.016	37.58533
355.231	56.55646
355.447	10.18593
355.662	5.97099
355.878	56.55646
356.093	31.26204
356.309	46.01671
356.524	5.97099
356.74	31.26204
356.955	27.04663
357.171	75.52945
357.386	27.04663
357.602	-31.95906
357.817	-40.38689
358.033	39.69314
358.248	54.44846
358.464	77.63768
358.679	-15.10224
358.895	52.34049
359.11	5.97099
359.325	22.83131
359.541	8.07845
359.756	-27.74501
359.972	64.98867
360.187	-21.42373
360.402	20.72369
360.618	50.23254
360.833	-44.60065
361.048	5.97099
361.264	43.90883
361.479	31.26204
361.694	5.97099
361.909	43.90883
362.125	52.34049
362.34	67.09678
362.555	-6.67324
362.77	-25.63794
362.986	33.36978
363.201	43.90883
363.416	-2.45859
363.631	-25.63794
363.847	-10.88778
364.062	8.07845
364.277	10.18593
364.492	69.20492
364.707	52.34049
364.922	56.55646
365.138	-34.06606
365.353	-25.63794
365.568	-15.10224
365.783	-50.9211
365.998	56.55646
366.213	58.66448
366.428	14.40096
366.643	64.98867
366.858	10.18593
367.073	-4.56592
367.288	-59.34802
367.503	33.36978
367.718	90.28749
367.933	75.52945
368.148	62.88058
368.363	41.80097
368.578	43.90883
368.793	-29.85205
369.008	58.66448
369.223	39.69314
369.438	100.82962
369.653	20.72369
369.868	35.47754
370.083	39.69314
370.298	18.61609
370.513	69.20492
370.728	22.83131
370.943	10.18593
371.157	-36.17303
371.372	-25.63794
371.587	5.97099
371.802	56.55646
372.017	100.82962
372.232	-48.81431
372.446	14.40096
372.661	20.72369
372.876	41.80097
373.091	94.50427
373.306	-40.38689
373.52	8.07845
373.735	-27.74501
373.95	10.18593
374.165	-53.02787
374.379	31.26204
374.594	46.01671
374.809	113.4809
375.023	31.26204
375.238	-2.45859
375.453	-53.02787
375.667	22.83131
375.882	27.04663
376.097	-44.60065
376.311	39.69314
376.526	22.83131
376.741	31.26204
376.955	60.77252
377.17	50.23254
377.384	-19.31659
377.599	-57.24133
377.813	-0.35123
378.028	18.61609
378.242	46.01671
378.457	75.52945
378.672	1.75615
378.886	5.97099
379.101	50.23254
379.315	48.12461
379.53	31.26204
379.744	16.50851
379.958	31.26204
380.173	39.69314
380.387	-0.35123
380.602	58.66448
380.816	56.55646
381.031	14.40096
381.245	48.12461
381.459	20.72369
381.674	39.69314
381.888	-36.17303
382.103	-21.42373
382.317	37.58533
382.531	-17.20943
382.746	-42.49378
382.96	60.77252
383.174	81.85419
383.388	37.58533
383.603	64.98867
383.817	-21.42373
384.031	22.83131
384.246	22.83131
384.46	81.85419
384.674	10.18593
384.888	-2.45859
385.103	-31.95906
385.317	31.26204
385.531	-27.74501
385.745	18.61609
385.959	88.17913
386.174	-6.67324
386.388	56.55646
386.602	-19.31659
386.816	-17.20943
387.03	48.12461
387.244	54.44846
387.458	39.69314
387.672	81.85419
387.887	35.47754
388.101	-8.78052
388.315	39.69314
388.529	29.15432
388.743	69.20492
388.957	90.28749
389.171	100.82962
389.385	31.26204
389.599	64.98867
389.813	-10.88778
390.027	-34.06606
390.241	5.97099
390.455	67.09678
390.669	-8.78052
390.883	-10.88778
391.097	90.28749
391.311	67.09678
391.525	29.15432
391.738	20.72369
391.952	14.40096
392.166	24.93896
392.38	92.39587
392.594	98.72115
392.808	12.29343
393.022	24.93896
393.236	5.97099
393.449	35.47754
393.663	1.75615
393.877	16.50851
394.091	71.31307
394.305	-27.74501
394.518	35.47754
394.732	-27.74501
394.946	22.83131
395.16	73.42125
395.373	1.75615
395.587	79.74592
395.801	73.42125
396.015	1.75615
396.228	27.04663
396.442	-57.24133
396.656	31.26204
396.869	35.47754
397.083	24.93896
397.297	8.07845
397.51	39.69314
397.724	33.36978
397.938	73.42125
398.151	69.20492
398.365	22.83131
398.578	52.34049
398.792	-2.45859
399.005	22.83131
399.219	83.96248
399.433	14.40096
399.646	33.36978
399.86	-31.95906
400.073	39.69314
400.287	14.40096
400.5	14.40096
400.714	14.40096
400.927	60.77252
401.141	48.12461
401.354	67.09678
401.567	24.93896
401.781	3.86356
401.994	-2.45859
402.208	22.83131
402.421	67.09678
402.635	22.83131
402.848	-17.20943
403.061	-34.06606
403.275	48.12461
403.488	-10.88778
403.701	8.07845
403.915	1.75615
404.128	14.40096
404.341	31.26204
404.555	31.26204
404.768	24.93896
404.981	54.44846
405.195	22.83131
405.408	22.83131
405.621	-10.88778
405.834	-2.45859
406.048	81.85419
406.261	8.07845
406.474	43.90883
406.687	16.50851
406.9	27.04663
407.114	5.97099
407.327	64.98867
407.54	48.12461
407.753	77.63768
407.966	-17.20943
408.179	41.80097
408.392	-69.8811
408.605	31.26204
408.819	69.20492
409.032	8.07845
409.245	-19.31659
409.458	-40.38689
409.671	-2.45859
409.884	-17.20943
410.097	1.75615
410.31	-2.45859
410.523	39.69314
410.736	31.26204
410.949	81.85419
411.162	60.77252
411.375	14.40096
411.588	16.50851
411.801	73.42125
412.014	-8.78052
412.227	60.77252
412.44	-2.45859
412.653	58.66448
412.865	-6.67324
413.078	-10.88778
413.291	-44.60065
413.504	27.04663
413.717	109.26371
413.93	-0.35123
414.143	56.55646
414.356	18.61609
414.568	22.83131
414.781	35.47754
414.994	-19.31659
415.207	-25.63794
415.42	94.50427
415.632	136.67694
415.845	-10.88778
416.058	35.47754
416.271	71.31307
416.483	43.90883
416.696	31.26204
416.909	35.47754
417.121	54.44846
417.334	31.26204
417.547	-10.88778
417.759	69.20492
417.972	14.40096
418.185	29.15432
418.397	-29.85205
418.61	62.88058
418.823	-19.31659
419.035	56.55646
419.248	33.36978
419.46	48.12461
419.673	27.04663
419.885	31.26204
420.098	-40.38689
420.311	-40.38689
420.523	31.26204
420.736	56.55646
420.948	48.12461
421.161	58.66448
421.373	90.28749
421.586	-42.49378
421.798	67.09678
422.01	1.75615
422.223	-0.35123
422.435	33.36978
422.648	56.55646
422.86	64.98867
423.073	67.09678
423.285	81.85419
423.497	41.80097
423.71	22.83131
423.922	-0.35123
424.134	64.98867
424.347	-78.3071
424.559	-6.67324
424.771	8.07845
424.984	16.50851
425.196	5.97099
425.408	94.50427
425.621	5.97099
425.833	60.77252
426.045	8.07845
426.257	35.47754
426.47	37.58533
426.682	73.42125
426.894	22.83131
427.106	69.20492
427.318	3.86356
427.531	56.55646
427.743	81.85419
427.955	46.01671
428.167	69.20492
428.379	-44.60065
428.591	69.20492
428.804	67.09678
429.016	16.50851
429.228	73.42125
429.44	-10.88778
429.652	1.75615
429.864	48.12461
430.076	41.80097
430.288	109.26371
430.5	77.63768
430.712	58.66448
430.924	90.28749
431.136	31.26204
431.348	98.72115
431.56	79.74592
431.772	62.88058
431.984	14.40096
432.196	35.47754
432.408	5.97099
432.62	50.23254
432.832	90.28749
433.044	-23.53085
433.256	81.85419
433.468	81.85419
433.679	16.50851
433.891	8.07845
434.103	56.55646
434.315	115.58952
434.527	14.40096
434.739	33.36978
434.95	58.66448
435.162	24.93896
435.374	73.42125
435.586	52.34049
435.798	-19.31659
436.009	119.80683
436.221	14.40096
436.433	111.37229
436.645	73.42125
436.856	1.75615
437.068	86.0708
437.28	52.34049
437.491	48.12461
437.703	-17.20943
437.915	-6.67324
438.126	100.82962
438.338	31.26204
438.55	67.09678
438.761	48.12461
438.973	92.39587
439.184	-42.49378
439.396	29.15432
439.608	41.80097
439.819	-2.45859
440.031	24.93896
440.242	41.80097
440.454	-10.88778
440.665	31.26204
440.877	22.83131
441.088	62.88058
441.3	62.88058
441.511	107.15516
441.723	39.69314
441.934	39.69314
442.146	88.17913
442.357	43.90883
442.569	71.31307
442.78	52.34049
442.991	64.98867
443.203	37.58533
443.414	86.0708
443.626	41.80097
443.837	54.44846
444.048	107.15516
444.26	100.82962
444.471	83.96248
444.682	24.93896
444.894	-19.31659
445.105	52.34049
445.316	-0.35123
445.528	111.37229
445.739	128.24171
445.95	43.90883
446.161	94.50427
446.373	33.36978
446.584	-4.56592
446.795	56.55646
447.006	92.39587
447.217	48.12461
447.429	-46.70749
447.64	27.04663
447.851	-36.17303
448.062	8.07845
448.273	105.04662
448.484	10.18593
448.695	79.74592
448.907	22.83131
449.118	50.23254
449.329	58.66448
449.54	-4.56592
449.751	92.39587
449.962	43.90883
450.173	46.01671
450.384	35.47754
450.595	22.83131
450.806	69.20492
451.017	50.23254
451.228	50.23254
451.439	31.26204
451.65	58.66448
451.861	18.61609
452.072	35.47754
452.283	96.6127
452.494	86.0708
452.705	58.66448
452.915	48.12461
453.126	90.28749
453.337	24.93896
453.548	98.72115
453.759	54.44846
453.97	149.33043
454.181	100.82962
454.391	39.69314
454.602	52.34049
454.813	22.83131
455.024	35.47754
455.235	124.02423
455.445	90.28749
455.656	75.52945
455.867	73.42125
456.078	67.09678
456.288	58.66448
456.499	98.72115
456.71	56.55646
456.921	90.28749
457.131	58.66448
457.342	29.15432
457.553	8.07845
457.763	79.74592
457.974	100.82962
458.184	14.40096
458.395	77.63768
458.606	83.96248
458.816	113.4809
459.027	60.77252
459.237	64.98867
459.448	54.44846
459.659	124.02423
459.869	81.85419
460.08	64.98867
460.29	56.55646
460.501	149.33043
460.711	22.83131
460.922	128.24171
461.132	100.82962
461.343	60.77252
461.553	149.33043
461.764	90.28749
461.974	54.44846
462.184	111.37229
462.395	115.58952
462.605	149.33043
462.816	121.91552
463.026	126.13296
463.236	102.93811
463.447	79.74592
463.657	64.98867
463.867	183.07674
464.078	132.45929
464.288	94.50427
464.498	117.69816
464.709	170.42125
464.919	88.17913
465.129	132.45929
465.339	107.15516
465.55	134.5681
465.76	98.72115
465.97	113.4809
466.18	121.91552
466.391	124.02423
466.601	67.09678
466.811	69.20492
467.021	69.20492
467.231	246.36508
467.441	168.31207
467.651	161.98467
467.862	134.5681
468.072	174.63967
468.282	157.7665
468.492	174.63967
468.702	263.24494
468.912	143.00359
469.122	176.7489
469.332	183.07674
469.542	195.73297
469.752	138.7858
469.962	191.51415
470.172	267.46509
470.382	223.15728
470.592	157.7665
470.802	208.38993
471.012	216.8283
471.222	183.07674
471.432	218.93794
471.642	305.44984
471.852	267.46509
472.062	246.36508
472.272	267.46509
472.482	358.21613
472.691	278.01581
472.901	303.33942
473.111	379.32569
473.321	341.32972
473.531	273.79547
473.741	275.90563
473.95	309.67074
474.16	292.78759
474.37	423.66115
474.58	330.77629
474.79	372.99264
474.999	472.22711
475.209	387.76998
475.419	438.44123
475.628	362.43791
475.838	394.10337
476.048	358.21613
476.258	423.66115
476.467	622.19641
476.677	514.46487
476.886	487.00965
477.096	571.49488
477.306	571.49488
477.515	554.59606
477.725	598.95729
477.935	527.13733
478.144	630.64738
478.354	588.39456
478.563	734.18699
478.773	556.70836
478.982	729.96036
479.192	732.07367
479.401	753.20736
479.611	681.35723
479.82	748.98054
480.03	791.25055
480.239	871.57399
480.449	903.28403
480.658	913.85444
480.868	888.48578
481.077	896.94188
481.287	962.48076
481.496	1015.3396
481.705	869.46005
481.915	975.1665
482.124	1146.44503
482.333	1154.90408
482.543	1028.02631
482.752	1224.69354
482.961	1154.90408
483.171	1207.77453
483.38	1226.80843
483.589	1389.6619
483.799	1171.82237
484.008	1478.49398
484.217	1298.71631
484.426	1370.62658
484.636	1402.35216
484.845	1527.13999
485.054	1406.58225
485.263	1618.08527
485.472	1518.67984
485.682	1527.13999
485.891	1563.09543
486.1	1611.74035
486.309	1622.3152
486.518	1806.30626
486.727	1662.49913
486.936	1878.2028
487.146	1829.5675
487.355	1909.92003
487.564	1772.4708
487.773	2034.66174
487.982	1886.66085
488.191	2093.85316
488.4	1882.43183
488.609	2104.42245
488.818	2140.35662
489.027	2193.1968
489.236	2178.40207
489.445	2284.06939
489.654	2153.03873
489.863	2339.00733
490.072	2153.03873
490.281	2459.42446
490.49	2322.10404
490.698	2300.97406
490.907	2332.66867
491.116	2478.43453
491.325	2520.6759
491.534	2482.65887
491.743	2229.12513
491.952	2529.12363
492.16	2567.1361
492.369	2605.14473
492.578	2626.25894
492.787	2674.81689
492.996	2609.36767
493.204	2862.64972
493.413	2702.25972
493.622	2862.64972
493.831	2738.14319
494.039	2949.1423
494.248	3006.0873
494.457	2989.21585
494.665	2980.77976
494.874	3084.10497
495.083	3060.91274
495.291	3273.78636
495.5	3162.10109
495.709	3128.37573
495.917	2925.93938
496.126	3128.37573
496.335	3191.60737
496.543	3309.59996
496.752	3098.86266
496.96	3402.27081
497.169	3347.51483
497.377	3497.01243
497.586	3355.9396
497.794	3570.67495
498.003	3419.11641
498.211	3475.96188
498.42	3301.17367
498.628	3755.78207
498.837	3511.74673
499.045	3892.41258
499.254	3450.69884
499.462	3823.05675
499.671	3705.31297
499.879	3873.4995
500.087	3749.47404
500.296	4016.35778
500.504	3738.96028
500.713	3869.29638
500.921	3993.25472
501.129	4033.15844
501.338	3818.85267
501.546	4091.95034
501.754	3793.62655
501.962	4094.04975
502.171	3789.42192
502.379	4186.40308
502.587	4001.65612
502.795	4125.5384
503.004	4163.31856
503.212	4272.42275
503.42	4192.69841
503.628	4379.37252
503.837	4125.5384
504.045	4278.71546
504.253	4190.59999
504.461	4433.87423
504.669	4297.59245
504.877	4444.35363
505.085	4505.12333
505.294	4461.11953
505.502	4379.37252
505.71	4704.06577
505.918	4479.97949
506.126	4639.16988
506.334	4435.97015
506.542	4651.73206
506.75	4429.68231
506.958	4781.49378
507.166	4645.45107
507.374	4973.88237
507.582	4695.69332
507.79	4823.33383
507.998	4691.50696
508.206	5097.15961
508.414	4879.80345
508.622	5019.85956
508.83	4858.89071
509.037	4892.34999
509.245	4796.13883
509.453	4946.70879
509.661	4869.34737
509.869	4975.97249
510.077	4898.62295
510.285	5011.5009
510.492	5047.02265
510.7	5040.75459
510.908	4925.80339
511.116	5072.0928
511.324	5065.82557
511.531	5218.2687
511.739	5061.64731
511.947	5297.57351
512.155	5191.13037
512.362	5431.06306
512.57	5166.07611
512.778	5383.10131
512.985	5593.62327
513.193	5326.78255
513.401	5335.12715
513.608	5406.04109
513.816	5447.74249
514.024	5347.64335
514.231	5368.50179
514.439	5601.95582
514.646	5683.17848
514.854	5585.29033
515.061	5435.23305
515.269	5706.08095
515.477	5597.78959
515.684	5822.63106
515.892	5618.61981
516.099	5964.05669
516.307	5712.32658
516.514	5853.83727
516.722	5722.7355
516.929	5654.02576
517.136	5785.17659
517.344	5839.27503
517.551	5647.77815
517.759	5924.55169
517.966	5772.69008
518.173	6016.024
518.381	5793.50047
518.588	6063.82092
518.796	5947.42404
519.003	6281.86632
519.21	5991.08153
519.418	6209.21326
519.625	5907.91545
519.832	6121.99168
520.039	5945.34486
520.247	6225.82221
520.454	6140.6855
520.661	6271.48907
520.868	6234.12612
521.076	6437.45501
521.283	6350.34151
521.49	6366.93773
521.697	6364.86328
521.904	6520.3821
522.112	6398.05161
522.319	6462.33704
522.526	6364.86328
522.733	6719.25613
522.94	6420.86513
523.147	6458.19026
523.354	6449.89644
523.561	6597.05664
523.768	6744.10048
523.975	6648.84587
524.183	6785.50041
524.39	6762.73158
524.597	6675.77058
524.804	6791.70961
525.011	6721.32662
525.218	6768.94153
525.425	6837.23747
525.632	6868.27287
525.838	6785.50041
526.045	6946.87305
526.252	6729.60835
526.459	6911.71386
526.666	7004.76809
526.873	6928.26018
527.08	7091.5776
527.287	7132.9016
527.494	6870.34172
527.701	7256.82024
527.907	7087.44471
528.114	7260.94949
528.321	7178.3477
528.528	7477.61214
528.735	7149.4287
528.941	7267.1432
529.148	7070.91226
529.355	7341.45229
529.562	6975.82278
529.768	7403.35487
529.975	7209.32752
530.182	7446.67502
530.388	7203.13195
530.595	7423.98471
530.802	7380.65954
531.008	7537.41014
531.215	7512.66833
531.422	7591.00678
531.628	7512.66833
531.835	7743.47239
532.042	7799.073
532.248	7784.65949
532.455	7603.37319
532.661	7801.13199
532.868	7644.589
533.074	7895.82303
533.281	7916.40225
533.487	7965.78398
533.694	7549.77988
533.9	7978.12757
534.107	7564.21027
534.313	7986.35622
534.52	8023.38111
534.726	8074.79367
534.933	8048.06072
535.139	8048.06072
535.345	7996.64157
535.552	8187.85703
535.758	8107.69108
535.965	8204.29757
536.171	8159.083
536.377	8124.13786
536.584	7959.61191
536.79	8524.63803
536.996	8335.77649
537.203	8331.66899
537.409	8341.9376
537.615	8483.59498
537.821	8288.53552
538.028	8354.25928
538.234	8212.51737
538.44	8569.77664
538.646	8343.99126
538.853	8600.54774
539.059	8278.26437
539.265	8450.75504
539.471	8491.8042
539.677	8600.54774
539.883	8413.80425
540.09	8783.03689
540.296	8733.8407
540.502	8713.33918
540.708	8619.00837
540.914	8785.0865
541.12	8778.93761
541.326	9075.94971
541.532	8793.28477
541.738	9067.76124
541.944	8838.37007
542.15	9080.04384
542.356	8951.04525
542.562	9352.15057
542.768	8770.73883
542.974	9172.14355
543.18	9100.51345
543.386	9202.83576
543.592	9507.50846
543.798	9215.11158
544.004	9096.41967
544.21	9249.88977
544.415	9159.86559
544.621	9527.94336
544.827	9245.79847
545.033	9482.98447
545.239	9348.06093
545.445	9630.09414
545.651	9276.48158
545.856	9370.55312
546.062	9589.23855
546.268	9650.5196
546.474	9352.15057
546.679	9540.20353
546.885	9388.95434
547.091	9670.94351
547.297	9532.03015
547.502	9721.99654
547.708	9411.44293
547.914	9640.30707
548.119	9525.89994
548.325	9799.57888
548.531	9364.41908
548.736	9540.20353
548.942	9644.39213
549.147	9777.12308
549.353	9628.05151
549.559	9703.61855
549.764	9793.45476
549.97	9628.05151
550.175	9724.03846
550.381	10227.94204
550.586	9764.8737
550.792	10113.77319
550.997	9777.12308
551.203	9985.28068
551.408	9724.03846
551.614	9981.20062
551.819	9773.04001
552.025	10113.77319
552.23	9744.45684
552.435	10195.32678
552.641	10315.57833
552.846	10358.36844
553.052	10291.12419
553.257	10219.78855
553.462	10136.20264
553.668	10209.59638
553.873	10264.63003
554.078	10417.45
554.283	10272.78232
554.489	10366.51828
554.694	10433.74643
554.899	10421.52418
555.105	10600.73761
555.31	10474.48388
555.515	10382.81732
555.72	10653.66843
555.925	10303.3515
556.131	10623.13244
556.336	10617.0249
556.541	11062.59412
556.746	10560.01589
556.951	10733.0492
557.156	10500.96046
557.361	10523.36205
557.567	10761.54039
557.772	10865.31019
557.977	10545.7621
558.182	10663.84649
558.387	10490.77742
558.592	10747.29509
558.797	10694.37882
559.002	10863.27578
559.207	10842.93104
559.412	10969.04995
559.617	10645.52577
559.822	10899.8934
560.027	10792.06409
560.232	11052.4274
560.437	10661.8109
560.642	11078.8603
560.847	10847.00008
561.051	11143.91809
561.256	10830.72364
561.461	11160.18083
561.666	10926.33716
561.871	11164.24641
562.076	11131.72059
562.281	11074.79382
562.485	10899.8934
562.69	11265.87227
562.895	10922.26901
563.1	11243.51681
563.305	11044.29383
563.509	11357.31361
563.714	11178.47561
563.919	11332.93124
564.123	11444.67204
564.328	11068.69402
564.533	11235.38724
564.737	11284.16218
564.942	11143.91809
565.147	11408.1056
565.351	11611.21337
565.556	11467.01665
565.761	11596.99888
565.965	11690.40025
566.17	11521.85761
566.374	11377.63114
566.579	11479.20413
566.784	11422.32626
566.988	11454.82883
567.193	11603.09086
567.397	11373.56772
567.602	11710.70238
567.806	11255.71085
568.011	11735.06377
568.215	11743.18396
568.42	11755.36397
568.624	11885.26489
568.828	11739.12388
569.033	11548.26005
569.237	11684.30944
569.442	11572.63013
569.646	11670.09723
569.85	11475.14168
570.055	11869.02917
570.259	11657.91499
570.463	11836.55611
570.668	11692.4305
570.872	12075.99572
571.076	11733.03371
571.281	11972.52288
571.485	11838.58574
571.689	11942.08576
571.893	11877.14709
572.098	12240.29404
572.302	11722.88324
572.506	12432.92951
572.71	12043.53585
572.914	12211.90028
573.119	11846.70417
573.323	11907.58814
573.527	11946.14415
573.731	12011.07399
573.935	12205.81571
574.139	12049.62223
574.343	11846.70417
574.547	12461.3127
574.751	12315.32794
574.955	12244.35018
575.159	12240.29404
575.364	12390.35228
