Data from mixed_try1_USB4F045381__33__00181.txt Node

Date: Thu Apr 03 20:13:14 EDT 2025
User: mmckonesweet
Spectrometer: USB4F04538
Trigger mode: 4
Integration Time (sec): 2.700000E-3
Scans to average: 1
Electric dark correction enabled: true
Nonlinearity correction enabled: true
Boxcar width: 0
XAxis mode: Wavelengths
Number of Pixels in Spectrum: 3648
>>>>>Begin Spectral Data<<<<<
345.52	-37.40208
345.736	-37.40208
345.952	-37.40208
346.168	21.60186
346.384	-16.33143
346.6	-33.18815
346.816	25.81715
347.032	17.38667
347.248	-3.68787
347.464	-37.40208
347.68	21.60186
347.896	51.11085
348.112	-7.90249
348.328	40.5714
348.544	-33.18815
348.76	25.81715
348.975	-66.89679
349.191	36.35578
349.407	36.35578
349.623	19.49425
349.839	93.27437
350.055	44.78711
350.27	21.60186
350.486	-33.18815
350.702	-45.82964
350.918	59.54283
351.133	25.81715
351.349	-3.68787
351.565	34.24801
351.781	11.06405
351.996	2.63424
352.212	8.95656
352.428	-24.75999
352.644	-24.75999
352.859	-31.08114
353.075	-18.43861
353.291	11.06405
353.506	-54.2568
353.722	-22.65289
353.938	67.97517
354.153	38.46358
354.369	11.06405
354.584	-3.68787
354.8	63.75895
355.016	-1.58052
355.231	-69.00336
355.447	105.92518
355.662	11.06405
355.878	34.24801
356.093	78.51611
356.309	21.60186
356.524	-50.04327
356.74	70.08331
356.955	-20.54576
357.171	-75.32294
357.386	57.4348
357.602	-28.97412
357.817	13.17157
358.033	6.8491
358.248	-18.43861
358.464	122.79415
358.679	51.11085
358.895	-47.93647
359.11	63.75895
359.325	-28.97412
359.541	36.35578
359.756	-28.97412
359.972	34.24801
360.187	19.49425
360.402	-5.79519
360.618	8.95656
360.833	30.03253
361.048	93.27437
361.264	17.38667
361.479	8.95656
361.694	-16.33143
361.909	-39.50901
362.125	0.52684
362.34	80.62436
362.555	-5.79519
362.77	76.40788
362.986	32.14026
363.201	-20.54576
363.416	76.40788
363.631	30.03253
363.847	51.11085
364.062	67.97517
364.277	63.75895
364.492	6.8491
364.707	36.35578
364.922	2.63424
365.138	30.03253
365.353	53.21881
365.568	4.74166
365.783	-16.33143
365.998	-16.33143
366.213	59.54283
366.428	19.49425
366.643	38.46358
366.858	21.60186
367.073	11.06405
367.288	8.95656
367.503	-5.79519
367.718	17.38667
367.933	27.92483
368.148	0.52684
368.363	25.81715
368.578	-41.61591
368.793	72.19148
369.008	30.03253
369.223	76.40788
369.438	-50.04327
369.653	-5.79519
369.868	-12.11701
370.083	15.2791
370.298	-24.75999
370.513	4.74166
370.728	86.94927
370.943	-47.93647
371.157	42.67924
371.372	2.63424
371.587	42.67924
371.802	-58.47023
372.017	36.35578
372.232	38.46358
372.446	78.51611
372.661	42.67924
372.876	8.95656
373.091	-43.72279
373.306	6.8491
373.52	8.95656
373.735	30.03253
373.95	19.49425
374.165	13.17157
374.379	42.67924
374.594	-83.74867
374.809	36.35578
375.023	17.38667
375.238	2.63424
375.453	46.895
375.667	19.49425
375.882	34.24801
376.097	17.38667
376.311	2.63424
376.526	8.95656
376.741	-31.08114
376.955	67.97517
377.17	-1.58052
377.384	53.21881
377.599	38.46358
377.813	67.97517
378.028	-7.90249
378.242	19.49425
378.457	38.46358
378.672	21.60186
378.886	-31.08114
379.101	80.62436
379.315	8.95656
379.53	27.92483
379.744	27.92483
379.958	0.52684
380.173	25.81715
380.387	32.14026
380.602	27.92483
380.816	95.38278
381.031	6.8491
381.245	42.67924
381.459	51.11085
381.674	4.74166
381.888	36.35578
382.103	55.32679
382.317	53.21881
382.531	19.49425
382.746	17.38667
382.96	-33.18815
383.174	-47.93647
383.388	32.14026
383.603	-20.54576
383.817	78.51611
384.031	-35.29512
384.246	72.19148
384.46	-26.86706
384.674	34.24801
384.888	-5.79519
385.103	-3.68787
385.317	8.95656
385.531	17.38667
385.745	2.63424
385.959	32.14026
386.174	78.51611
386.388	63.75895
386.602	19.49425
386.816	11.06405
387.03	-39.50901
387.244	27.92483
387.458	-5.79519
387.672	70.08331
387.887	-7.90249
388.101	17.38667
388.315	-7.90249
388.529	-16.33143
388.743	17.38667
388.957	67.97517
389.171	97.49122
389.385	42.67924
389.599	6.8491
389.813	51.11085
390.027	8.95656
390.241	-39.50901
390.455	-7.90249
390.669	63.75895
390.883	55.32679
391.097	25.81715
391.311	-5.79519
391.525	4.74166
391.738	-7.90249
391.952	13.17157
392.166	36.35578
392.38	11.06405
392.594	-22.65289
392.808	55.32679
393.022	-7.90249
393.236	-3.68787
393.449	11.06405
393.663	-7.90249
393.877	8.95656
394.091	-58.47023
394.305	-16.33143
394.518	17.38667
394.732	89.05761
394.946	59.54283
395.16	-41.61591
395.373	70.08331
395.587	11.06405
395.801	19.49425
396.015	38.46358
396.228	-12.11701
396.442	42.67924
396.656	36.35578
396.869	-20.54576
397.083	17.38667
397.297	-3.68787
397.51	36.35578
397.724	67.97517
397.938	11.06405
398.151	-33.18815
398.365	84.84094
398.578	2.63424
398.792	67.97517
399.005	25.81715
399.219	-5.79519
399.433	19.49425
399.646	21.60186
399.86	-24.75999
400.073	40.5714
400.287	-22.65289
400.5	23.70949
400.714	8.95656
400.927	63.75895
401.141	112.25088
401.354	-31.08114
401.567	30.03253
401.781	-50.04327
401.994	19.49425
402.208	-22.65289
402.421	-62.68356
402.635	49.00291
402.848	61.65088
403.061	76.40788
403.275	6.8491
403.488	17.38667
403.701	-5.79519
403.915	42.67924
404.128	59.54283
404.341	-16.33143
404.555	8.95656
404.768	8.95656
404.981	13.17157
405.195	27.92483
405.408	99.59967
405.621	30.03253
405.834	2.63424
406.048	4.74166
406.261	-81.64228
406.474	23.70949
406.687	148.10019
406.9	25.81715
407.114	13.17157
407.327	34.24801
407.54	42.67924
407.753	-3.68787
407.966	30.03253
408.179	27.92483
408.392	25.81715
408.605	-41.61591
408.819	-5.79519
409.032	-33.18815
409.245	51.11085
409.458	30.03253
409.671	6.8491
409.884	36.35578
410.097	36.35578
410.31	82.73264
410.523	84.84094
410.736	61.65088
410.949	8.95656
411.162	76.40788
411.375	0.52684
411.588	51.11085
411.801	25.81715
412.014	51.11085
412.227	13.17157
412.44	114.35949
412.653	-33.18815
412.865	114.35949
413.078	13.17157
413.291	13.17157
413.504	27.92483
413.717	-5.79519
413.93	21.60186
414.143	59.54283
414.356	-28.97412
414.568	57.4348
414.781	30.03253
414.994	101.70815
415.207	25.81715
415.42	34.24801
415.632	32.14026
415.845	11.06405
416.058	-3.68787
416.271	57.4348
416.483	27.92483
416.696	25.81715
416.909	59.54283
417.121	0.52684
417.334	40.5714
417.547	-5.79519
417.759	-50.04327
417.972	17.38667
418.185	13.17157
418.397	34.24801
418.61	-50.04327
418.823	-66.89679
419.035	-18.43861
419.248	-35.29512
419.46	67.97517
419.673	59.54283
419.885	-22.65289
420.098	-39.50901
420.311	32.14026
420.523	103.81665
420.736	-5.79519
420.948	46.895
421.161	-56.36353
421.373	76.40788
421.586	2.63424
421.798	46.895
422.01	-33.18815
422.223	-106.91731
422.435	-1.58052
422.648	-10.00976
422.86	89.05761
423.073	59.54283
423.285	8.95656
423.497	46.895
423.71	-39.50901
423.922	0.52684
424.134	46.895
424.347	44.78711
424.559	19.49425
424.771	46.895
424.984	59.54283
425.196	70.08331
425.408	70.08331
425.621	72.19148
425.833	4.74166
426.045	51.11085
426.257	46.895
426.47	2.63424
426.682	-7.90249
426.894	-33.18815
427.106	23.70949
427.318	17.38667
427.531	46.895
427.743	30.03253
427.955	17.38667
428.167	-20.54576
428.379	51.11085
428.591	27.92483
428.804	4.74166
429.016	8.95656
429.228	17.38667
429.44	11.06405
429.652	76.40788
429.864	4.74166
430.076	-14.22423
430.288	6.8491
430.5	25.81715
430.712	103.81665
430.924	8.95656
431.136	51.11085
431.348	17.38667
431.56	30.03253
431.772	46.895
431.984	17.38667
432.196	55.32679
432.408	80.62436
432.62	34.24801
432.832	89.05761
433.044	-16.33143
433.256	93.27437
433.468	49.00291
433.679	17.38667
433.891	51.11085
434.103	-33.18815
434.315	-5.79519
434.527	63.75895
434.739	99.59967
434.95	93.27437
435.162	110.14229
435.374	30.03253
435.586	4.74166
435.798	0.52684
436.009	17.38667
436.221	34.24801
436.433	25.81715
436.645	32.14026
436.856	105.92518
437.068	44.78711
437.28	70.08331
437.491	67.97517
437.703	-3.68787
437.915	61.65088
438.126	27.92483
438.338	42.67924
438.55	-20.54576
438.761	53.21881
438.973	55.32679
439.184	30.03253
439.396	-3.68787
439.608	70.08331
439.819	46.895
440.031	55.32679
440.242	0.52684
440.454	-7.90249
440.665	44.78711
440.877	120.68545
441.088	49.00291
441.3	51.11085
441.511	-41.61591
441.723	86.94927
441.934	42.67924
442.146	-5.79519
442.357	124.90287
442.569	-24.75999
442.78	44.78711
442.991	36.35578
443.203	4.74166
443.414	46.895
443.626	51.11085
443.837	74.29967
444.048	72.19148
444.26	67.97517
444.471	97.49122
444.682	76.40788
444.894	8.95656
445.105	51.11085
445.316	36.35578
445.528	13.17157
445.739	97.49122
445.95	21.60186
446.161	17.38667
446.373	76.40788
446.584	-7.90249
446.795	76.40788
447.006	-20.54576
447.217	17.38667
447.429	25.81715
447.64	-20.54576
447.851	38.46358
448.062	-12.11701
448.273	93.27437
448.484	82.73264
448.695	89.05761
448.907	44.78711
449.118	-33.18815
449.329	53.21881
449.54	6.8491
449.751	72.19148
449.962	-58.47023
450.173	110.14229
450.384	4.74166
450.595	27.92483
450.806	-1.58052
451.017	53.21881
451.228	-5.79519
451.439	82.73264
451.65	59.54283
451.861	154.42718
452.072	114.35949
452.283	46.895
452.494	78.51611
452.705	51.11085
452.915	-7.90249
453.126	25.81715
453.337	67.97517
453.548	42.67924
453.759	101.70815
453.97	108.03372
454.181	34.24801
454.391	46.895
454.602	44.78711
454.813	72.19148
455.024	6.8491
455.235	101.70815
455.445	27.92483
455.656	17.38667
455.867	78.51611
456.078	30.03253
456.288	86.94927
456.499	59.54283
456.71	101.70815
456.921	78.51611
457.131	95.38278
457.342	51.11085
457.553	51.11085
457.763	76.40788
457.974	-33.18815
458.184	25.81715
458.395	95.38278
458.606	97.49122
458.816	84.84094
459.027	89.05761
459.237	70.08331
459.448	116.46812
459.659	40.5714
459.869	91.16598
460.08	105.92518
460.29	46.895
460.501	72.19148
460.711	61.65088
460.922	86.94927
461.132	105.92518
461.343	65.86705
461.553	127.01161
461.764	67.97517
461.974	129.12037
462.184	76.40788
462.395	93.27437
462.605	103.81665
462.816	53.21881
463.026	59.54283
463.236	154.42718
463.447	97.49122
463.657	103.81665
463.867	80.62436
464.078	95.38278
464.288	105.92518
464.498	120.68545
464.709	141.77339
464.919	101.70815
465.129	196.6119
465.339	84.84094
465.55	145.99124
465.76	65.86705
465.97	139.6645
466.18	137.55563
466.391	124.90287
466.601	78.51611
466.811	108.03372
467.021	38.46358
467.231	46.895
467.441	236.69488
467.651	188.1743
467.862	80.62436
468.072	217.70731
468.282	194.50247
468.492	177.62776
468.702	205.04983
468.912	213.48807
469.122	219.81696
469.332	209.26891
469.542	186.06495
469.752	194.50247
469.962	240.91455
470.172	194.50247
470.382	196.6119
470.592	108.03372
470.802	198.72135
471.012	164.97259
471.222	240.91455
471.432	249.35413
471.642	135.44678
471.852	207.15936
472.062	232.47528
472.272	270.45441
472.482	257.79401
472.691	274.6747
472.901	262.01407
473.111	281.00526
473.321	312.66058
473.531	359.09566
473.741	291.55658
473.95	354.87394
474.16	249.35413
474.37	384.42741
474.58	405.53904
474.79	430.87514
474.999	350.65229
475.209	407.65029
475.419	401.31658
475.628	441.43252
475.838	416.09547
476.048	456.21352
476.258	413.98415
476.467	509.00883
476.677	443.54405
476.886	506.89684
477.096	540.69038
477.306	492.11332
477.515	549.13933
477.725	536.46599
477.935	599.83753
478.144	591.3873
478.354	618.85129
478.563	751.97453
478.773	692.80309
478.982	722.38775
479.192	732.95422
479.401	701.25563
479.611	728.7276
479.82	678.01157
480.03	923.1918
480.239	880.91064
480.449	849.20191
480.658	878.79667
480.868	883.02463
481.077	1011.99175
481.287	811.15404
481.496	1024.67841
481.705	1064.8542
481.915	1100.80262
482.124	980.27611
482.333	1166.35914
482.543	988.73347
482.752	1102.91728
482.961	1208.65573
483.171	1221.34497
483.38	1071.19793
483.589	1276.33291
483.799	1257.29842
484.008	1373.62287
484.217	1373.62287
484.426	1413.80866
484.636	1223.45986
484.845	1684.52939
485.054	1515.33103
485.263	1707.79301
485.472	1418.03876
485.682	1627.42636
485.891	1591.47174
486.1	1648.57585
486.309	1750.08949
486.518	1741.63031
486.727	1767.00769
486.936	1760.66339
487.146	1826.21932
487.355	1855.82383
487.564	1760.66339
487.773	1898.11431
487.982	1853.70926
488.191	2158.14672
488.4	1910.80105
488.609	2018.62979
488.818	2037.65668
489.027	2189.85041
489.236	2016.51566
489.445	2143.35103
489.654	2208.87172
489.863	2215.21201
490.072	2363.12865
490.281	2327.21031
490.49	2295.51532
490.698	2487.76322
490.907	2344.11341
491.116	2587.02073
491.325	2430.73166
491.534	2572.23934
491.743	2335.66194
491.952	2555.3456
492.16	2470.86582
492.369	2734.80127
492.578	2620.80455
492.787	2943.69329
492.996	2572.23934
493.204	2840.31946
493.413	2924.70887
493.622	2922.59942
493.831	2865.63869
494.039	2985.8766
494.248	2747.46523
494.457	3042.81447
494.665	3023.83642
494.874	3013.29252
495.083	3154.54837
495.291	3103.9574
495.5	3186.163
495.709	3221.98846
495.917	2981.65854
496.126	3146.11719
496.335	3070.225
496.543	3251.48817
496.752	3506.30918
496.96	3455.78675
497.169	3318.90366
497.377	3438.94363
497.586	3396.83085
497.794	3453.68142
498.003	3384.19563
498.211	3491.57455
498.42	3548.40318
498.628	3657.81284
498.837	3630.46518
499.045	3670.43375
499.254	3558.92553
499.462	3750.35017
499.671	3706.18927
499.879	3876.47667
500.087	3693.5703
500.296	4044.53314
500.504	3805.01369
500.713	4006.7318
500.921	3931.10926
501.129	4004.63154
501.338	3832.34048
501.546	4113.81818
501.754	3842.84989
501.962	3886.98399
502.171	4023.53322
502.379	4222.94832
502.587	3872.2736
502.795	4191.47433
503.004	3977.32617
503.212	4329.92397
503.42	4187.27744
503.628	4197.76951
503.837	4149.50161
504.045	4170.48902
504.253	4222.94832
504.461	4560.46348
504.669	4176.78484
504.877	4384.43901
505.085	4445.22689
505.294	4541.61116
505.502	4256.51531
505.71	4742.60926
505.918	4323.63283
506.126	4518.567
506.334	4472.47065
506.542	4730.05295
506.75	4633.76092
506.958	4790.73424
507.166	4769.81181
507.374	4863.94483
507.582	4681.91288
507.79	4709.12395
507.998	4767.71944
508.206	4995.65327
508.414	4909.9486
508.622	4861.85349
508.83	4765.62705
509.037	4974.75326
509.245	4891.13022
509.453	5116.82775
509.661	4855.57932
509.869	5014.4613
510.077	4826.29716
510.285	5283.83672
510.492	5020.73023
510.7	5125.18174
510.908	5156.50588
511.116	5192.00025
511.324	5066.69603
511.531	5319.30687
511.739	5087.58587
511.947	5267.14254
512.155	5396.48319
512.362	5285.92338
512.57	5237.92413
512.778	5288.01003
512.985	5519.48162
513.193	5415.25095
513.401	5335.99636
513.608	5525.73359
513.816	5425.67667
514.024	5375.62789
514.231	5392.31232
514.439	5694.45657
514.646	5517.39759
514.854	5534.06922
515.061	5388.14135
515.269	5654.89347
515.477	5594.49126
515.684	5642.39809
515.892	5459.035
516.099	5758.98861
516.307	5731.92955
516.514	5727.76626
516.722	5694.45657
516.929	5838.06146
517.136	5725.68458
517.344	5840.14186
517.551	5719.43941
517.759	5746.50031
517.966	5867.18497
518.173	5967.0019
518.381	5958.6859
518.588	6066.76453
518.796	6085.46398
519.003	6220.45907
519.21	5983.63278
519.418	6205.9259
519.625	5904.62269
519.832	6199.69705
520.039	5871.34509
520.247	6176.85612
520.454	6058.45305
520.661	6365.72764
520.868	6135.31988
521.076	6303.48371
521.283	6191.39158
521.49	6338.75785
521.697	6309.70905
521.904	6216.30685
522.112	6467.3476
522.319	6573.05608
522.526	6266.12726
522.733	6709.7661
522.94	6527.46373
523.147	6550.2613
523.354	6581.34439
523.561	6724.25978
523.768	6645.56631
523.975	6751.17362
524.183	6430.02431
524.39	6755.31387
524.597	6558.55064
524.804	6790.50228
525.011	6856.7214
525.218	7098.63775
525.425	6637.28086
525.632	6780.15343
525.838	6610.35058
526.045	7051.10587
526.252	6984.95482
526.459	7210.188
526.666	6819.47602
526.873	7082.10627
527.08	7111.03543
527.287	6920.84899
527.494	7106.90296
527.701	7317.54576
527.907	7239.09787
528.114	7377.39257
528.321	7220.51345
528.528	7185.40465
528.735	7288.6476
528.941	7237.03302
529.148	7063.50663
529.355	7203.99246
529.562	7077.97317
529.768	7437.22104
529.975	7321.67371
530.182	7523.83689
530.388	7183.33923
530.595	7558.88489
530.802	7259.74513
531.008	7602.17093
531.215	7503.21752
531.422	7507.34157
531.628	7523.83689
531.835	7684.59457
532.042	7620.71921
532.248	7762.86569
532.455	7622.78003
532.661	7773.16227
532.868	7538.26917
533.074	7832.87211
533.281	7655.75016
533.487	7939.89434
533.694	7915.20185
533.9	8116.77123
534.107	7892.56447
534.313	7781.39915
534.52	7746.39008
534.726	8124.99443
534.933	7849.34071
535.139	8104.43584
535.345	8081.81907
535.552	7981.04192
535.758	8026.29483
535.965	8240.08563
536.171	8085.93139
536.377	8381.80941
536.584	8087.98752
536.79	8309.93217
536.996	8431.08294
537.203	8363.32896
537.409	8182.54783
537.615	8351.00779
537.821	8299.66204
538.028	8548.06338
538.234	8252.41314
538.44	8615.76078
538.646	8615.76078
538.853	8628.0672
539.059	8375.64943
539.265	8720.34408
539.471	8566.52834
539.677	8509.07677
539.883	8560.37352
540.09	8527.54496
540.296	8420.81854
540.502	8908.88374
540.708	8562.42514
540.914	8921.17452
541.12	8761.34403
541.326	9035.85769
541.532	8964.18719
541.738	8941.65771
541.944	8865.86098
542.15	9078.84973
542.356	8947.80233
542.562	9011.28737
542.768	9044.04724
542.974	9283.46998
543.18	9207.78026
543.386	9260.97003
543.592	9220.05583
543.798	9265.06108
544.004	9046.09459
544.21	9240.51377
544.415	9119.78742
544.621	9422.51613
544.827	9348.91295
545.033	9359.13688
545.239	9328.46384
545.445	9436.82541
545.651	9248.69648
545.856	9534.92492
546.062	9592.13269
546.268	9504.27279
546.474	9555.35769
546.679	9516.53407
546.885	9305.96792
547.091	9369.3604
547.297	9373.4497
547.502	9614.6038
547.708	9420.47188
547.914	9536.96827
548.119	9420.47188
548.325	9675.87905
548.531	9469.52935
548.736	9786.13965
548.942	9820.84217
549.147	9933.08559
549.353	9620.73195
549.559	9788.18109
549.764	9690.17461
549.97	9822.88336
550.175	9739.18223
550.381	10028.96767
550.586	9706.51146
550.792	9992.25064
550.997	9959.60936
551.203	9910.64047
551.408	9904.51877
551.614	9802.47079
551.819	9722.84734
552.025	10147.24683
552.23	9871.86745
552.435	10063.64062
552.641	10216.56107
552.846	10371.44204
553.052	10302.16275
553.257	10310.31406
553.462	10179.86728
553.668	10387.74083
553.873	10259.36489
554.078	10210.44574
554.283	10469.22225
554.489	10780.7028
554.694	10338.84193
554.899	10514.02824
555.105	10342.91713
555.31	10475.33252
555.515	10432.55817
555.72	10784.77256
555.925	10322.54061
556.131	10666.73021
556.336	10493.66265
556.541	10699.29766
556.746	10505.88216
556.951	10571.04518
557.156	10483.47937
557.361	10603.62188
557.567	10733.89719
557.772	10648.40965
557.977	10522.17413
558.182	10768.49325
558.387	10644.33828
558.592	10792.91193
558.797	10752.21318
559.002	11018.70584
559.207	10703.36837
559.412	10579.18965
559.617	10776.633
559.822	11128.50175
560.027	10691.15609
560.232	10831.57139
560.437	10766.45828
560.642	11071.57449
560.847	10882.43268
561.051	10963.79587
561.256	10906.84355
561.461	11197.61644
561.666	11295.16959
561.871	10963.79587
562.076	11201.68163
562.281	11345.96921
562.485	11041.07425
562.69	11104.10538
562.895	10792.91193
563.1	11315.4902
563.305	10963.79587
563.509	11413.01517
563.714	11108.17155
563.919	11280.94457
564.123	11215.90947
564.328	11228.10436
564.533	11303.29796
564.737	11134.60059
564.942	11053.27464
565.147	11561.29144
565.351	11437.39286
565.556	11419.10972
565.761	11291.10535
565.965	11538.95168
566.17	11581.59934
566.374	11282.97674
566.579	11672.97355
566.784	11417.07821
566.988	11534.88978
567.193	11601.90632
567.397	11413.01517
567.602	11733.87957
567.806	11376.44598
568.011	11949.01882
568.215	11603.93697
568.42	11551.13714
568.624	11719.66888
568.828	11709.51812
569.033	11668.91286
569.237	11920.60958
569.442	11741.99977
569.646	11465.83174
569.85	11494.26873
570.055	11851.60899
570.259	11796.80751
570.463	11837.40179
570.668	11967.28106
570.872	11865.81578
571.076	11825.22387
571.281	12026.12166
571.485	11969.31016
571.689	11845.52024
571.893	11855.66812
572.098	12056.55385
572.302	11835.37216
572.506	12050.46756
572.71	11784.62855
572.914	11944.96046
573.119	11875.96324
573.323	11770.41939
573.527	11955.10631
573.731	12145.8116
573.935	12164.06706
574.139	12281.69909
574.343	11922.63886
574.547	12214.77352
574.751	11888.13991
574.955	12374.97643
575.159	12038.29475
575.364	12326.31183
575.568	12277.64321
575.772	12555.40739
