Data from mixed_try1_USB4F045381__8__00156.txt Node

Date: Thu Apr 03 20:07:54 EDT 2025
User: mmckonesweet
Spectrometer: USB4F04538
Trigger mode: 4
Integration Time (sec): 2.700000E-3
Scans to average: 1
Electric dark correction enabled: true
Nonlinearity correction enabled: true
Boxcar width: 0
XAxis mode: Wavelengths
Number of Pixels in Spectrum: 3648
>>>>>Begin Spectral Data<<<<<
345.52	-68.30117
345.736	-68.30117
345.952	-68.30117
346.168	15.98162
346.384	-0.87807
346.6	64.46165
346.816	-43.0205
347.032	34.9506
347.248	-7.20006
347.464	13.87408
347.68	-21.95051
347.896	-15.62904
348.112	13.87408
348.328	-11.4146
348.544	-17.73622
348.76	-0.87807
348.975	-9.30734
349.191	5.44413
349.407	-0.87807
349.623	-40.91361
349.839	30.7351
350.055	43.38186
350.27	24.41204
350.486	1.22931
350.702	28.62739
350.918	66.56975
351.133	-19.84338
351.349	-85.15292
351.565	3.33671
351.781	-30.3788
351.996	-7.20006
352.212	-53.55456
352.428	43.38186
352.644	7.55158
352.859	87.65205
353.075	-36.69976
353.291	-26.16471
353.506	49.70556
353.722	-7.20006
353.938	-9.30734
354.153	-51.44779
354.369	-89.3656
354.584	26.51971
354.8	-5.09275
355.016	-76.72725
355.231	-21.95051
355.447	-5.09275
355.662	1.22931
355.878	-34.5928
356.093	-13.52183
356.309	66.56975
356.524	7.55158
356.74	-13.52183
356.955	-93.57817
357.171	15.98162
357.386	34.9506
357.602	28.62739
357.817	5.44413
358.033	-9.30734
358.248	58.13747
358.464	11.76656
358.679	7.55158
358.895	15.98162
359.11	-51.44779
359.325	37.05838
359.541	30.7351
359.756	-7.20006
359.972	-13.52183
360.187	-80.94014
360.402	-80.94014
360.618	-34.5928
360.833	-32.48582
361.048	15.98162
361.264	45.48974
361.479	-9.30734
361.694	9.65906
361.909	-57.768
362.125	18.08919
362.34	-17.73622
362.555	37.05838
362.77	-0.87807
362.986	-43.0205
363.201	41.27401
363.416	-51.44779
363.631	34.9506
363.847	20.19678
364.062	-66.19459
364.277	-51.44779
364.492	28.62739
364.707	-68.30117
364.922	-30.3788
365.138	32.84284
365.353	1.22931
365.568	79.21886
365.783	-26.16471
365.998	1.22931
366.213	-15.62904
366.428	-2.98542
366.643	-9.30734
366.858	-51.44779
367.073	3.33671
367.288	-9.30734
367.503	7.55158
367.718	11.76656
367.933	-24.05762
368.148	-13.52183
368.363	-21.95051
368.578	-9.30734
368.793	-51.44779
369.008	-17.73622
369.223	18.08919
369.438	-24.05762
369.653	24.41204
369.868	7.55158
370.083	20.19678
370.298	28.62739
370.513	24.41204
370.728	24.41204
370.943	32.84284
371.157	-36.69976
371.372	11.76656
371.587	32.84284
371.802	-38.8067
372.017	7.55158
372.232	24.41204
372.446	-21.95051
372.661	-36.69976
372.876	7.55158
373.091	64.46165
373.306	-9.30734
373.52	15.98162
373.735	-110.42743
373.95	-9.30734
374.165	-55.66129
374.379	15.98162
374.594	18.08919
374.809	-7.20006
375.023	-43.0205
375.238	24.41204
375.453	-11.4146
375.667	26.51971
375.882	-68.30117
376.097	72.8942
376.311	-32.48582
376.526	-43.0205
376.741	-49.34101
376.955	1.22931
377.17	49.70556
377.384	1.22931
377.599	49.70556
377.813	-0.87807
378.028	24.41204
378.242	-55.66129
378.457	-34.5928
378.672	7.55158
378.886	70.78603
379.101	-21.95051
379.315	-87.25927
379.53	3.33671
379.744	-89.3656
379.958	7.55158
380.173	34.9506
380.387	-5.09275
380.602	70.78603
380.816	-19.84338
381.031	-15.62904
381.245	53.92147
381.459	39.16618
381.674	1.22931
381.888	66.56975
382.103	-9.30734
382.317	-11.4146
382.531	22.3044
382.746	43.38186
382.96	-40.91361
383.174	-34.5928
383.388	53.92147
383.603	-47.2342
383.817	1.22931
384.031	26.51971
384.246	-24.05762
384.46	-76.72725
384.674	-11.4146
384.888	7.55158
385.103	-17.73622
385.317	-32.48582
385.531	-36.69976
385.745	7.55158
385.959	-24.05762
386.174	-17.73622
386.388	20.19678
386.602	39.16618
386.816	75.0024
387.03	-38.8067
387.244	-0.87807
387.458	37.05838
387.672	-43.0205
387.887	37.05838
388.101	47.59764
388.315	-17.73622
388.529	7.55158
388.743	-5.09275
388.957	26.51971
389.171	58.13747
389.385	-47.2342
389.599	-47.2342
389.813	-9.30734
390.027	26.51971
390.241	-43.0205
390.455	49.70556
390.669	7.55158
390.883	28.62739
391.097	9.65906
391.311	-36.69976
391.525	83.43541
391.738	43.38186
391.952	58.13747
392.166	1.22931
392.38	70.78603
392.594	-76.72725
392.808	-59.87469
393.022	-7.20006
393.236	24.41204
393.449	11.76656
393.663	-30.3788
393.877	47.59764
394.091	-30.3788
394.305	47.59764
394.518	-72.51427
394.732	-64.08798
394.946	-68.30117
395.16	-11.4146
395.373	11.76656
395.587	-17.73622
395.801	24.41204
396.015	-55.66129
396.228	26.51971
396.442	43.38186
396.656	15.98162
396.869	43.38186
397.083	49.70556
397.297	26.51971
397.51	-7.20006
397.724	-0.87807
397.938	24.41204
398.151	-0.87807
398.365	-40.91361
398.578	-26.16471
398.792	5.44413
399.005	7.55158
399.219	-24.05762
399.433	-40.91361
399.646	-43.0205
399.86	-43.0205
400.073	-26.16471
400.287	-40.91361
400.5	-85.15292
400.714	-15.62904
400.927	-7.20006
401.141	5.44413
401.354	24.41204
401.567	72.8942
401.781	26.51971
401.994	-17.73622
402.208	-47.2342
402.421	26.51971
402.635	-5.09275
402.848	28.62739
403.061	-17.73622
403.275	9.65906
403.488	24.41204
403.701	22.3044
403.915	-51.44779
404.128	-15.62904
404.341	1.22931
404.555	-15.62904
404.768	1.22931
404.981	77.11062
405.195	-36.69976
405.408	-5.09275
405.621	7.55158
405.834	41.27401
406.048	-9.30734
406.261	-19.84338
406.474	7.55158
406.687	-51.44779
406.9	-80.94014
407.114	-76.72725
407.327	28.62739
407.54	-21.95051
407.753	28.62739
407.966	-26.16471
408.179	-78.83371
408.392	41.27401
408.605	1.22931
408.819	-55.66129
409.032	15.98162
409.245	24.41204
409.458	-38.8067
409.671	-0.87807
409.884	-17.73622
410.097	7.55158
410.31	-17.73622
410.523	-49.34101
410.736	9.65906
410.949	-74.62077
411.162	51.8135
411.375	-53.55456
411.588	-13.52183
411.801	-32.48582
412.014	-43.0205
412.227	-36.69976
412.44	47.59764
412.653	41.27401
412.865	9.65906
413.078	-118.85142
413.291	-34.5928
413.504	3.33671
413.717	-13.52183
413.93	41.27401
414.143	-64.08798
414.356	-40.91361
414.568	-7.20006
414.781	-26.16471
414.994	-19.84338
415.207	3.33671
415.42	89.7604
415.632	49.70556
415.845	-19.84338
416.058	-43.0205
416.271	28.62739
416.483	-83.04654
416.696	-9.30734
416.909	-15.62904
417.121	-26.16471
417.334	32.84284
417.547	1.22931
417.759	-9.30734
417.972	-15.62904
418.185	11.76656
418.397	-24.05762
418.61	-102.00301
418.823	-57.768
419.035	-15.62904
419.248	-28.27177
419.46	-17.73622
419.673	-34.5928
419.885	7.55158
420.098	60.24551
420.311	72.8942
420.523	-43.0205
420.736	-36.69976
420.948	72.8942
421.161	11.76656
421.373	-17.73622
421.586	-21.95051
421.798	-24.05762
422.01	-15.62904
422.223	34.9506
422.435	-9.30734
422.648	-24.05762
422.86	15.98162
423.073	127.71452
423.285	-0.87807
423.497	-59.87469
423.71	1.22931
423.922	-34.5928
424.134	-24.05762
424.347	20.19678
424.559	58.13747
424.771	41.27401
424.984	18.08919
425.196	-15.62904
425.408	-0.87807
425.621	-26.16471
425.833	-30.3788
426.045	3.33671
426.257	5.44413
426.47	-47.2342
426.682	-9.30734
426.894	20.19678
427.106	9.65906
427.318	39.16618
427.531	-13.52183
427.743	58.13747
427.955	-61.98135
428.167	-13.52183
428.379	-43.0205
428.591	3.33671
428.804	60.24551
429.016	7.55158
429.228	13.87408
429.44	-32.48582
429.652	5.44413
429.864	-0.87807
430.076	5.44413
430.288	7.55158
430.5	-9.30734
430.712	-70.40773
430.924	45.48974
431.136	11.76656
431.348	3.33671
431.56	34.9506
431.772	3.33671
431.984	34.9506
432.196	9.65906
432.408	58.13747
432.62	-28.27177
432.832	3.33671
433.044	-21.95051
433.256	-5.09275
433.468	-32.48582
433.679	-51.44779
433.891	-26.16471
434.103	49.70556
434.315	11.76656
434.527	68.67788
434.739	-0.87807
434.95	15.98162
435.162	15.98162
435.374	-13.52183
435.586	-36.69976
435.798	3.33671
436.009	-47.2342
436.221	-15.62904
436.433	11.76656
436.645	32.84284
436.856	49.70556
437.068	41.27401
437.28	-21.95051
437.491	34.9506
437.703	-9.30734
437.915	-11.4146
438.126	-5.09275
438.338	-43.0205
438.55	15.98162
438.761	56.02946
438.973	24.41204
439.184	1.22931
439.396	47.59764
439.608	-7.20006
439.819	-7.20006
440.031	26.51971
440.242	51.8135
440.454	-15.62904
440.665	-0.87807
440.877	-0.87807
441.088	-13.52183
441.3	-13.52183
441.511	-5.09275
441.723	-13.52183
441.934	-9.30734
442.146	32.84284
442.357	-7.20006
442.569	-17.73622
442.78	15.98162
442.991	32.84284
443.203	45.48974
443.414	-15.62904
443.626	-26.16471
443.837	1.22931
444.048	-36.69976
444.26	-40.91361
444.471	30.7351
444.682	43.38186
444.894	-47.2342
445.105	-17.73622
445.316	1.22931
445.528	-7.20006
445.739	-13.52183
445.95	-9.30734
446.161	7.55158
446.373	49.70556
446.584	32.84284
446.795	-5.09275
447.006	-0.87807
447.217	79.21886
447.429	-34.5928
447.64	58.13747
447.851	-9.30734
448.062	-24.05762
448.273	11.76656
448.484	-24.05762
448.695	62.35357
448.907	-76.72725
449.118	-47.2342
449.329	28.62739
449.54	-26.16471
449.751	-15.62904
449.962	79.21886
450.173	-24.05762
450.384	9.65906
450.595	7.55158
450.806	24.41204
451.017	34.9506
451.228	15.98162
451.439	22.3044
451.65	-59.87469
451.861	49.70556
452.072	-0.87807
452.283	37.05838
452.494	7.55158
452.705	60.24551
452.915	-9.30734
453.126	-30.3788
453.337	43.38186
453.548	3.33671
453.759	3.33671
453.97	-0.87807
454.181	22.3044
454.391	-34.5928
454.602	-2.98542
454.813	-0.87807
455.024	15.98162
455.235	-0.87807
455.445	-51.44779
455.656	58.13747
455.867	24.41204
456.078	-30.3788
456.288	24.41204
456.499	-47.2342
456.71	-83.04654
456.921	-0.87807
457.131	-40.91361
457.342	-2.98542
457.553	13.87408
457.763	20.19678
457.974	72.8942
458.184	53.92147
458.395	-0.87807
458.606	-17.73622
458.816	-47.2342
459.027	-2.98542
459.237	41.27401
459.448	-21.95051
459.659	41.27401
459.869	34.9506
460.08	3.33671
460.29	100.3025
460.501	-5.09275
460.711	-26.16471
460.922	-15.62904
461.132	34.9506
461.343	-17.73622
461.553	-17.73622
461.764	28.62739
461.974	7.55158
462.184	26.51971
462.395	28.62739
462.605	7.55158
462.816	26.51971
463.026	-17.73622
463.236	32.84284
463.447	7.55158
463.657	-26.16471
463.867	41.27401
464.078	-72.51427
464.288	-17.73622
464.498	-38.8067
464.709	13.87408
464.919	85.54372
465.129	-40.91361
465.339	49.70556
465.55	9.65906
465.76	37.05838
465.97	79.21886
466.18	-15.62904
466.391	11.76656
466.601	-9.30734
466.811	53.92147
467.021	-15.62904
467.231	24.41204
467.441	-0.87807
467.651	68.67788
467.862	1.22931
468.072	-30.3788
468.282	41.27401
468.492	-17.73622
468.702	7.55158
468.912	83.43541
469.122	-9.30734
469.332	-55.66129
469.542	7.55158
469.752	-72.51427
469.962	-21.95051
470.172	3.33671
470.382	-49.34101
470.592	-26.16471
470.802	3.33671
471.012	-24.05762
471.222	34.9506
471.432	30.7351
471.642	-28.27177
471.852	-51.44779
472.062	32.84284
472.272	53.92147
472.482	7.55158
472.691	49.70556
472.901	-24.05762
473.111	18.08919
473.321	-21.95051
473.531	-7.20006
473.741	-64.08798
473.95	18.08919
474.16	-26.16471
474.37	41.27401
474.58	-47.2342
474.79	22.3044
474.999	60.24551
475.209	3.33671
475.419	75.0024
475.628	28.62739
475.838	47.59764
476.048	-38.8067
476.258	62.35357
476.467	1.22931
476.677	60.24551
476.886	-26.16471
477.096	-7.20006
477.306	-38.8067
477.515	15.98162
477.725	20.19678
477.935	-17.73622
478.144	-43.0205
478.354	-24.05762
478.563	-26.16471
478.773	-9.30734
478.982	3.33671
479.192	-32.48582
479.401	11.76656
479.611	-0.87807
479.82	3.33671
480.03	-9.30734
480.239	45.48974
480.449	-26.16471
480.658	-5.09275
480.868	22.3044
481.077	-9.30734
481.287	72.8942
481.496	13.87408
481.705	87.65205
481.915	32.84284
482.124	11.76656
482.333	20.19678
482.543	-34.5928
482.752	-7.20006
482.961	24.41204
483.171	75.0024
483.38	-40.91361
483.589	7.55158
483.799	-9.30734
484.008	-9.30734
484.217	20.19678
484.426	43.38186
484.636	51.8135
484.845	45.48974
485.054	15.98162
485.263	18.08919
485.472	-17.73622
485.682	-9.30734
485.891	-0.87807
486.1	-80.94014
486.309	13.87408
486.518	-2.98542
486.727	-55.66129
486.936	-2.98542
487.146	60.24551
487.355	32.84284
487.564	41.27401
487.773	-24.05762
487.982	-51.44779
488.191	-26.16471
488.4	-7.20006
488.609	-83.04654
488.818	-13.52183
489.027	-17.73622
489.236	49.70556
489.445	98.19403
489.654	-30.3788
489.863	49.70556
490.072	-34.5928
490.281	-30.3788
490.49	9.65906
490.698	-5.09275
490.907	28.62739
491.116	18.08919
491.325	-19.84338
491.534	60.24551
491.743	-7.20006
491.952	-61.98135
492.16	3.33671
492.369	3.33671
492.578	-59.87469
492.787	-26.16471
492.996	81.32712
493.204	-24.05762
493.413	49.70556
493.622	-24.05762
493.831	-34.5928
494.039	-32.48582
494.248	-13.52183
494.457	-51.44779
494.665	51.8135
494.874	45.48974
495.083	58.13747
495.291	-17.73622
495.5	20.19678
495.709	-9.30734
495.917	45.48974
496.126	7.55158
496.335	49.70556
496.543	37.05838
496.752	-59.87469
496.96	-0.87807
497.169	-55.66129
497.377	-32.48582
497.586	-21.95051
497.794	7.55158
498.003	43.38186
498.211	-17.73622
498.42	1.22931
498.628	53.92147
498.837	53.92147
499.045	-83.04654
499.254	43.38186
499.462	5.44413
499.671	1.22931
499.879	-0.87807
500.087	-11.4146
500.296	37.05838
500.504	47.59764
500.713	18.08919
500.921	-0.87807
501.129	-13.52183
501.338	49.70556
501.546	20.19678
501.754	60.24551
501.962	77.11062
502.171	-9.30734
502.379	-13.52183
502.587	28.62739
502.795	51.8135
503.004	-26.16471
503.212	30.7351
503.42	75.0024
503.628	-7.20006
503.837	58.13747
504.045	-0.87807
504.253	32.84284
504.461	85.54372
504.669	24.41204
504.877	24.41204
505.085	-40.91361
505.294	-21.95051
505.502	1.22931
505.71	-55.66129
505.918	26.51971
506.126	66.56975
506.334	53.92147
506.542	32.84284
506.75	-38.8067
506.958	-21.95051
507.166	-30.3788
507.374	30.7351
507.582	30.7351
507.79	79.21886
507.998	79.21886
508.206	60.24551
508.414	28.62739
508.622	37.05838
508.83	43.38186
509.037	102.41098
509.245	24.41204
509.453	15.98162
509.661	58.13747
509.869	-9.30734
510.077	37.05838
510.285	15.98162
510.492	62.35357
510.7	24.41204
510.908	9.65906
511.116	11.76656
511.324	-43.0205
511.531	49.70556
511.739	58.13747
511.947	7.55158
512.155	34.9506
512.362	66.56975
512.57	51.8135
512.778	1.22931
512.985	20.19678
513.193	-0.87807
513.401	66.56975
513.608	26.51971
513.816	93.97717
514.024	26.51971
514.231	37.05838
514.439	11.76656
514.646	53.92147
514.854	7.55158
515.061	66.56975
515.269	75.0024
515.477	11.76656
515.684	7.55158
515.892	64.46165
516.099	51.8135
516.307	34.9506
516.514	-5.09275
516.722	15.98162
516.929	100.3025
517.136	32.84284
517.344	18.08919
517.551	26.51971
517.759	-17.73622
517.966	41.27401
518.173	18.08919
518.381	51.8135
518.588	24.41204
518.796	24.41204
519.003	26.51971
519.21	66.56975
519.418	-43.0205
519.625	-0.87807
519.832	60.24551
520.039	49.70556
520.247	53.92147
520.454	20.19678
520.661	-17.73622
520.868	64.46165
521.076	-32.48582
521.283	-0.87807
521.49	5.44413
521.697	58.13747
521.904	43.38186
522.112	53.92147
522.319	49.70556
522.526	68.67788
522.733	20.19678
522.94	47.59764
523.147	-9.30734
523.354	41.27401
523.561	3.33671
523.768	11.76656
523.975	-15.62904
524.183	-5.09275
524.39	85.54372
524.597	11.76656
524.804	20.19678
525.011	20.19678
525.218	43.38186
525.425	34.9506
525.632	28.62739
525.838	45.48974
526.045	77.11062
526.252	34.9506
526.459	28.62739
526.666	43.38186
526.873	43.38186
527.08	1.22931
527.287	37.05838
527.494	87.65205
527.701	11.76656
527.907	110.84515
528.114	3.33671
528.321	85.54372
528.528	32.84284
528.735	26.51971
528.941	-32.48582
529.148	45.48974
529.355	-43.0205
529.562	134.0409
529.768	-34.5928
529.975	28.62739
530.182	81.32712
530.388	-38.8067
530.595	56.02946
530.802	32.84284
531.008	58.13747
531.215	28.62739
531.422	66.56975
531.628	85.54372
531.835	3.33671
532.042	-36.69976
532.248	66.56975
532.455	62.35357
532.661	11.76656
532.868	18.08919
533.074	66.56975
533.281	-43.0205
533.487	51.8135
533.694	-21.95051
533.9	-17.73622
534.107	49.70556
534.313	3.33671
534.52	51.8135
534.726	28.62739
534.933	49.70556
535.139	91.86877
535.345	112.95374
535.552	-2.98542
535.758	37.05838
535.965	51.8135
536.171	58.13747
536.377	39.16618
536.584	93.97717
536.79	49.70556
536.996	68.67788
537.203	-26.16471
537.409	26.51971
537.615	60.24551
537.821	87.65205
538.028	89.7604
538.234	77.11062
538.44	108.73657
538.646	85.54372
538.853	-2.98542
539.059	117.171
539.265	51.8135
539.471	60.24551
539.677	79.21886
539.883	60.24551
540.09	83.43541
540.296	62.35357
540.502	13.87408
540.708	83.43541
540.914	91.86877
541.12	91.86877
541.326	110.84515
541.532	53.92147
541.738	87.65205
541.944	26.51971
542.15	51.8135
542.356	49.70556
542.562	100.3025
542.768	47.59764
542.974	56.02946
543.18	81.32712
543.386	100.3025
543.592	37.05838
543.798	121.38835
544.004	102.41098
544.21	91.86877
544.415	110.84515
544.621	110.84515
544.827	26.51971
545.033	60.24551
545.239	45.48974
545.445	5.44413
545.651	51.8135
545.856	45.48974
546.062	75.0024
546.268	79.21886
546.474	98.19403
546.679	28.62739
546.885	83.43541
547.091	68.67788
547.297	100.3025
547.502	75.0024
547.708	15.98162
547.914	3.33671
548.119	20.19678
548.325	138.25859
548.531	91.86877
548.736	66.56975
548.942	58.13747
549.147	115.06236
549.353	30.7351
549.559	15.98162
549.764	79.21886
549.97	100.3025
550.175	87.65205
550.381	62.35357
550.586	102.41098
550.792	180.44012
550.997	37.05838
551.203	75.0024
551.408	100.3025
551.614	89.7604
551.819	144.58528
552.025	117.171
552.23	51.8135
552.435	79.21886
552.641	43.38186
552.846	68.67788
553.052	91.86877
553.257	108.73657
553.462	45.48974
553.668	26.51971
553.873	93.97717
554.078	75.0024
554.283	41.27401
554.489	112.95374
554.694	184.65873
554.899	98.19403
555.105	102.41098
555.31	87.65205
555.515	62.35357
555.72	125.60578
555.925	134.0409
556.131	142.47636
556.336	136.14973
556.541	85.54372
556.746	159.34831
556.951	47.59764
557.156	108.73657
557.361	117.171
557.567	87.65205
557.772	68.67788
557.977	127.71452
558.182	193.0962
558.387	123.49705
558.592	93.97717
558.797	66.56975
559.002	70.78603
559.207	112.95374
559.412	125.60578
559.617	142.47636
559.822	125.60578
560.027	100.3025
560.232	93.97717
560.437	226.84928
560.642	104.51949
560.847	117.171
561.051	110.84515
561.256	144.58528
561.461	165.67563
561.666	134.0409
561.871	193.0962
562.076	148.80318
562.281	138.25859
562.485	87.65205
562.69	163.5665
562.895	138.25859
563.1	190.9868
563.305	134.0409
563.509	117.171
563.714	131.93208
563.919	83.43541
564.123	150.91217
564.328	142.47636
564.533	58.13747
564.737	112.95374
564.942	163.5665
565.147	159.34831
565.351	146.69422
565.556	201.53399
565.761	176.22159
565.965	172.00315
566.17	224.73956
566.374	197.31505
566.579	117.171
566.784	231.06877
566.988	91.86877
567.193	167.78478
567.397	193.0962
567.602	142.47636
567.806	117.171
568.011	180.44012
568.215	144.58528
568.42	108.73657
568.624	157.23924
568.828	190.9868
569.033	260.60738
569.237	266.93757
569.442	148.80318
569.646	172.00315
569.85	207.86254
570.055	176.22159
570.259	134.0409
570.463	159.34831
570.668	150.91217
570.872	142.47636
571.076	144.58528
571.281	188.87742
571.485	209.9721
571.689	205.753
571.893	193.0962
572.098	292.26001
572.302	172.00315
572.506	222.62986
572.71	193.0962
572.914	150.91217
573.119	134.0409
573.323	203.64348
573.527	201.53399
573.731	222.62986
573.935	188.87742
574.139	195.20561
574.343	292.26001
574.547	174.11236
574.751	233.17854
574.955	256.38735
575.159	237.39815
575.364	254.27736
575.568	264.82749
575.772	226.84928
575.976	197.31505
576.18	290.14971
576.383	167.78478
576.587	269.04767
576.791	216.30089
576.995	285.92915
577.199	190.9868
577.403	203.64348
577.607	205.753
577.811	273.26793
578.015	252.16739
578.219	260.60738
578.422	178.33085
578.626	266.93757
578.83	169.89395
579.034	304.92223
579.238	237.39815
579.442	231.06877
579.645	264.82749
579.849	247.94751
580.053	247.94751
580.257	180.44012
580.46	307.03267
580.664	254.27736
580.868	252.16739
581.071	288.03942
581.275	231.06877
581.479	260.60738
581.682	186.76807
581.886	298.59104
582.09	313.36408
582.293	342.91278
582.497	372.4649
582.7	243.72771
582.904	321.80621
583.107	330.24862
583.311	372.4649
583.515	340.80204
583.718	264.82749
583.922	256.38735
584.125	319.69565
584.329	340.80204
584.532	302.81182
584.735	349.24509
584.939	252.16739
585.142	345.02353
585.346	304.92223
585.549	328.13799
585.753	370.35392
585.956	334.46994
586.159	355.57756
586.363	370.35392
586.566	264.82749
