Data from mixed_try1_USB4F045381__11__00159.txt Node

Date: Thu Apr 03 20:08:19 EDT 2025
User: mmckonesweet
Spectrometer: USB4F04538
Trigger mode: 4
Integration Time (sec): 2.700000E-3
Scans to average: 1
Electric dark correction enabled: true
Nonlinearity correction enabled: true
Boxcar width: 0
XAxis mode: Wavelengths
Number of Pixels in Spectrum: 3648
>>>>>Begin Spectral Data<<<<<
345.52	-25.46235
345.736	-25.46235
345.952	-25.46235
346.168	-0.17561
346.384	-69.70555
346.6	86.24649
346.816	-76.0251
347.032	35.65319
347.248	16.68414
347.464	-21.24814
347.68	33.54542
347.896	-25.46235
348.112	-17.03383
348.328	20.89932
348.544	-10.71218
348.76	20.89932
348.975	-63.38577
349.191	50.4082
349.407	44.08449
349.623	-23.35526
349.839	-50.74553
350.055	-21.24814
350.27	-6.49763
350.486	-67.59898
350.702	-31.78348
350.918	-33.89048
351.133	25.11459
351.349	-80.238
351.565	8.25407
351.781	50.4082
351.996	10.36155
352.212	41.97663
352.428	39.86879
352.644	-42.31821
352.859	-8.60492
353.075	63.05626
353.291	-40.21131
353.506	35.65319
353.722	4.03918
353.938	18.79172
354.153	-23.35526
354.369	-134.99622
354.584	-61.27913
354.8	-46.53192
355.016	-29.67646
355.231	-46.53192
355.447	12.46906
355.662	-31.78348
355.878	-4.39031
356.093	-4.39031
356.309	-25.46235
356.524	-19.141
356.74	-88.66349
356.955	-10.71218
357.171	41.97663
357.386	-46.53192
357.602	18.79172
357.817	-48.63874
358.033	46.19237
358.248	46.19237
358.464	-59.17246
358.679	-8.60492
358.895	8.25407
359.11	-29.67646
359.325	-10.71218
359.541	-25.46235
359.756	60.94819
359.972	-67.59898
360.187	-48.63874
360.402	-92.87609
360.618	41.97663
360.833	27.22227
361.048	-76.0251
361.264	-61.27913
361.479	-14.92664
361.694	-33.89048
361.909	52.51615
362.125	-29.67646
362.34	60.94819
362.555	4.03918
362.77	-33.89048
362.986	-46.53192
363.201	67.27246
363.416	27.22227
363.631	-33.89048
363.847	8.25407
364.062	-25.46235
364.277	71.48875
364.492	-33.89048
364.707	-0.17561
364.922	67.27246
365.138	12.46906
365.353	-38.10439
365.568	-2.28298
365.783	-44.42508
365.998	-14.92664
366.213	18.79172
366.428	-17.03383
366.643	25.11459
366.858	-42.31821
367.073	-21.24814
367.288	10.36155
367.503	27.22227
367.718	-86.55716
367.933	-10.71218
368.148	4.03918
368.363	-8.60492
368.578	-46.53192
368.793	10.36155
369.008	4.03918
369.223	23.00695
369.438	-50.74553
369.653	-0.17561
369.868	16.68414
370.083	-8.60492
370.298	-8.60492
370.513	-14.92664
370.728	-29.67646
370.943	10.36155
371.157	8.25407
371.372	52.51615
371.587	-76.0251
371.802	88.35483
372.017	-84.4508
372.232	1.93177
372.446	-0.17561
372.661	4.03918
372.876	-14.92664
373.091	-42.31821
373.306	-71.81209
373.52	-40.21131
373.735	-33.89048
373.95	-59.17246
374.165	-4.39031
374.379	37.76098
374.594	-99.19478
374.809	16.68414
375.023	-6.49763
375.238	-27.56942
375.453	-42.31821
375.667	31.43768
375.882	-82.34441
376.097	-8.60492
376.311	-31.78348
376.526	-8.60492
376.741	-17.03383
376.955	29.32996
377.17	-46.53192
377.384	-17.03383
377.599	-23.35526
377.813	-67.59898
378.028	-59.17246
378.242	63.05626
378.457	4.03918
378.672	-21.24814
378.886	-25.46235
379.101	-12.81942
379.315	4.03918
379.53	8.25407
379.744	-25.46235
379.958	-38.10439
380.173	4.03918
380.387	-44.42508
380.602	-8.60492
380.816	-48.63874
381.031	-29.67646
381.245	-61.27913
381.459	10.36155
381.674	-0.17561
381.888	25.11459
382.103	-101.30096
382.317	-61.27913
382.531	-0.17561
382.746	-17.03383
382.96	-0.17561
383.174	-29.67646
383.388	-21.24814
383.603	-42.31821
383.817	41.97663
384.031	33.54542
384.246	-14.92664
384.46	25.11459
384.674	14.57659
384.888	-73.91861
385.103	-4.39031
385.317	63.05626
385.531	-25.46235
385.745	-17.03383
385.959	-0.17561
386.174	-33.89048
386.388	-17.03383
386.602	-33.89048
386.816	-40.21131
387.03	-50.74553
387.244	-6.49763
387.458	-40.21131
387.672	-57.06577
387.887	16.68414
388.101	-10.71218
388.315	-48.63874
388.529	37.76098
388.743	-19.141
388.957	-31.78348
389.171	-17.03383
389.385	33.54542
389.599	41.97663
389.813	35.65319
390.027	10.36155
390.241	-6.49763
390.455	-6.49763
390.669	1.93177
390.883	25.11459
391.097	25.11459
391.311	-82.34441
391.525	-23.35526
391.738	-78.13156
391.952	4.03918
392.166	-17.03383
392.38	-40.21131
392.594	46.19237
392.808	84.13817
393.022	-38.10439
393.236	10.36155
393.449	-42.31821
393.663	60.94819
393.877	-21.24814
394.091	37.76098
394.305	20.89932
394.518	-33.89048
394.732	-80.238
394.946	25.11459
395.16	1.93177
395.373	-33.89048
395.587	-40.21131
395.801	-14.92664
396.015	-42.31821
396.228	20.89932
396.442	-33.89048
396.656	-23.35526
396.869	-80.238
397.083	-19.141
397.297	-17.03383
397.51	12.46906
397.724	-0.17561
397.938	-61.27913
398.151	20.89932
398.365	-4.39031
398.578	-4.39031
398.792	4.03918
399.005	-21.24814
399.219	-40.21131
399.433	12.46906
399.646	-23.35526
399.86	-19.141
400.073	29.32996
400.287	-6.49763
400.5	8.25407
400.714	50.4082
400.927	-63.38577
401.141	-29.67646
401.354	-4.39031
401.567	16.68414
401.781	-33.89048
401.994	-8.60492
402.208	-6.49763
402.421	-33.89048
402.635	-4.39031
402.848	-42.31821
403.061	-6.49763
403.275	-17.03383
403.488	-67.59898
403.701	58.84015
403.915	-92.87609
404.128	-4.39031
404.341	-124.46718
404.555	29.32996
404.768	41.97663
404.981	-54.95905
405.195	25.11459
405.408	-84.4508
405.621	50.4082
405.834	-33.89048
406.048	33.54542
406.261	52.51615
406.474	-17.03383
406.687	52.51615
406.9	-38.10439
407.114	12.46906
407.327	12.46906
407.54	-40.21131
407.753	-8.60492
407.966	39.86879
408.179	10.36155
408.392	-38.10439
408.605	-12.81942
408.819	1.93177
409.032	-48.63874
409.245	1.93177
409.458	20.89932
409.671	-59.17246
409.884	-38.10439
410.097	-14.92664
410.31	12.46906
410.523	-84.4508
410.736	-82.34441
410.949	-17.03383
411.162	79.92161
411.375	-50.74553
411.588	-23.35526
411.801	-19.141
412.014	-29.67646
412.227	41.97663
412.44	6.14661
412.653	41.97663
412.865	-0.17561
413.078	-8.60492
413.291	-14.92664
413.504	-48.63874
413.717	52.51615
413.93	-44.42508
414.143	25.11459
414.356	-113.93748
414.568	48.30027
414.781	-12.81942
414.994	-29.67646
415.207	33.54542
415.42	75.70514
415.632	-40.21131
415.845	-0.17561
416.058	-8.60492
416.271	10.36155
416.483	-14.92664
416.696	52.51615
416.909	-46.53192
417.121	4.03918
417.334	-46.53192
417.547	-4.39031
417.759	8.25407
417.972	-82.34441
418.185	-44.42508
418.397	1.93177
418.61	-17.03383
418.823	-23.35526
419.035	-48.63874
419.248	52.51615
419.46	1.93177
419.673	4.03918
419.885	31.43768
420.098	-40.21131
420.311	84.13817
420.523	-4.39031
420.736	-101.30096
420.948	-54.95905
421.161	18.79172
421.373	10.36155
421.586	16.68414
421.798	10.36155
422.01	-33.89048
422.223	-25.46235
422.435	-6.49763
422.648	-46.53192
422.86	50.4082
423.073	-0.17561
423.285	-12.81942
423.497	12.46906
423.71	25.11459
423.922	-88.66349
424.134	46.19237
424.347	63.05626
424.559	-21.24814
424.771	-109.72541
424.984	8.25407
425.196	-42.31821
425.408	-92.87609
425.621	6.14661
425.833	-17.03383
426.045	37.76098
426.257	-67.59898
426.47	16.68414
426.682	25.11459
426.894	-21.24814
427.106	-52.8523
427.318	8.25407
427.531	-67.59898
427.743	4.03918
427.955	75.70514
428.167	46.19237
428.379	-0.17561
428.591	4.03918
428.804	-8.60492
429.016	63.05626
429.228	29.32996
429.44	-17.03383
429.652	1.93177
429.864	-14.92664
430.076	37.76098
430.288	-6.49763
430.5	-63.38577
430.712	-33.89048
430.924	25.11459
431.136	4.03918
431.348	35.65319
431.56	-17.03383
431.772	63.05626
431.984	33.54542
432.196	-12.81942
432.408	50.4082
432.62	-12.81942
432.832	-88.66349
433.044	-17.03383
433.256	-46.53192
433.468	31.43768
433.679	33.54542
433.891	-42.31821
434.103	-50.74553
434.315	-31.78348
434.527	-19.141
434.739	-8.60492
434.95	-59.17246
435.162	-38.10439
435.374	-78.13156
435.586	-54.95905
435.798	67.27246
436.009	-40.21131
436.221	-59.17246
436.433	-38.10439
436.645	-0.17561
436.856	8.25407
437.068	27.22227
437.28	-42.31821
437.491	31.43768
437.703	-25.46235
437.915	27.22227
438.126	-48.63874
438.338	-50.74553
438.55	-25.46235
438.761	-50.74553
438.973	-17.03383
439.184	-10.71218
439.396	-14.92664
439.608	-40.21131
439.819	-14.92664
440.031	69.38059
440.242	-31.78348
440.454	8.25407
440.665	-6.49763
440.877	-40.21131
441.088	-38.10439
441.3	-42.31821
441.511	-57.06577
441.723	-42.31821
441.934	4.03918
442.146	-19.141
442.357	12.46906
442.569	-19.141
442.78	20.89932
442.991	-126.57304
443.203	101.00532
443.414	-4.39031
443.626	-4.39031
443.837	31.43768
444.048	-17.03383
444.26	-14.92664
444.471	33.54542
444.682	-76.0251
444.894	-21.24814
445.105	-19.141
445.316	-33.89048
445.528	-33.89048
445.739	18.79172
445.95	-0.17561
446.161	-50.74553
446.373	23.00695
446.584	44.08449
446.795	25.11459
447.006	4.03918
447.217	-27.56942
447.429	-8.60492
447.64	-17.03383
447.851	94.67998
448.062	-27.56942
448.273	8.25407
448.484	-0.17561
448.695	12.46906
448.907	33.54542
449.118	-8.60492
449.329	16.68414
449.54	-67.59898
449.751	-6.49763
449.962	14.57659
450.173	-6.49763
450.384	-38.10439
450.595	-25.46235
450.806	-38.10439
451.017	-6.49763
451.228	10.36155
451.439	-21.24814
451.65	27.22227
451.861	67.27246
452.072	-25.46235
452.283	-67.59898
452.494	1.93177
452.705	8.25407
452.915	-33.89048
453.126	4.03918
453.337	-14.92664
453.548	20.89932
453.759	16.68414
453.97	-4.39031
454.181	-17.03383
454.391	-69.70555
454.602	1.93177
454.813	48.30027
455.024	-80.238
455.235	35.65319
455.445	46.19237
455.656	-31.78348
455.867	-17.03383
456.078	-38.10439
456.288	44.08449
456.499	1.93177
456.71	-71.81209
456.921	8.25407
457.131	-31.78348
457.342	-14.92664
457.553	-48.63874
457.763	-50.74553
457.974	-10.71218
458.184	25.11459
458.395	8.25407
458.606	-59.17246
458.816	-4.39031
459.027	-76.0251
459.237	8.25407
459.448	-29.67646
459.659	14.57659
459.869	-38.10439
460.08	-6.49763
460.29	-4.39031
460.501	-80.238
460.711	-25.46235
460.922	16.68414
461.132	33.54542
461.343	-12.81942
461.553	84.13817
461.764	31.43768
461.974	25.11459
462.184	4.03918
462.395	8.25407
462.605	20.89932
462.816	-0.17561
463.026	20.89932
463.236	-50.74553
463.447	20.89932
463.657	-8.60492
463.867	29.32996
464.078	-8.60492
464.288	-158.15772
464.498	25.11459
464.709	-12.81942
464.919	25.11459
465.129	-35.99745
465.339	52.51615
465.55	-101.30096
465.76	-33.89048
465.97	8.25407
466.18	-12.81942
466.391	-0.17561
466.601	-33.89048
466.811	-44.42508
467.021	-6.49763
467.231	-31.78348
467.441	60.94819
467.651	-50.74553
467.862	12.46906
468.072	69.38059
468.282	27.22227
468.492	-4.39031
468.702	29.32996
468.912	-10.71218
469.122	-25.46235
469.332	33.54542
469.542	27.22227
469.752	-0.17561
469.962	-48.63874
470.172	-19.141
470.382	-23.35526
470.592	-2.28298
470.802	111.54801
471.012	4.03918
471.222	-50.74553
471.432	-6.49763
471.642	-17.03383
471.852	-84.4508
472.062	111.54801
472.272	12.46906
472.482	25.11459
472.691	25.11459
472.901	60.94819
473.111	-19.141
473.321	50.4082
473.531	-52.8523
473.741	-48.63874
473.95	48.30027
474.16	14.57659
474.37	-0.17561
474.58	-38.10439
474.79	-52.8523
474.999	10.36155
475.209	4.03918
475.419	8.25407
475.628	67.27246
475.838	-63.38577
476.048	10.36155
476.258	46.19237
476.467	16.68414
476.677	-71.81209
476.886	-40.21131
477.096	-25.46235
477.306	-8.60492
477.515	58.84015
477.725	10.36155
477.935	33.54542
478.144	50.4082
478.354	20.89932
478.563	35.65319
478.773	29.32996
478.982	6.14661
479.192	-84.4508
479.401	-17.03383
479.611	-0.17561
479.82	27.22227
480.03	-6.49763
480.239	75.70514
480.449	25.11459
480.658	8.25407
480.868	18.79172
481.077	16.68414
481.287	-8.60492
481.496	-17.03383
481.705	-33.89048
481.915	-17.03383
482.124	-12.81942
482.333	46.19237
482.543	-2.28298
482.752	-33.89048
482.961	-8.60492
483.171	109.43943
483.38	58.84015
483.589	54.62413
483.799	75.70514
484.008	12.46906
484.217	-48.63874
484.426	67.27246
484.636	33.54542
484.845	-4.39031
485.054	-31.78348
485.263	1.93177
485.472	77.81336
485.682	16.68414
485.891	27.22227
486.1	58.84015
486.309	41.97663
486.518	16.68414
486.727	46.19237
486.936	-71.81209
487.146	33.54542
487.355	-0.17561
487.564	56.73213
487.773	-14.92664
487.982	46.19237
488.191	41.97663
488.4	44.08449
488.609	44.08449
488.818	10.36155
489.027	31.43768
489.236	16.68414
489.445	16.68414
489.654	-46.53192
489.863	-23.35526
490.072	16.68414
490.281	-2.28298
490.49	41.97663
490.698	-46.53192
490.907	12.46906
491.116	71.48875
491.325	8.25407
491.534	-42.31821
491.743	-33.89048
491.952	50.4082
492.16	52.51615
492.369	44.08449
492.578	27.22227
492.787	88.35483
492.996	63.05626
493.204	16.68414
493.413	48.30027
493.622	41.97663
493.831	41.97663
494.039	37.76098
494.248	67.27246
494.457	25.11459
494.665	33.54542
494.874	67.27246
495.083	82.02988
495.291	4.03918
495.5	-33.89048
495.709	29.32996
495.917	58.84015
496.126	10.36155
496.335	16.68414
496.543	41.97663
496.752	41.97663
496.96	1.93177
497.169	39.86879
497.377	84.13817
497.586	50.4082
497.794	73.59693
498.003	41.97663
498.211	12.46906
498.42	117.87389
498.628	23.00695
498.837	8.25407
499.045	35.65319
499.254	10.36155
499.462	10.36155
499.671	27.22227
499.879	75.70514
500.087	94.67998
500.296	88.35483
500.504	101.00532
500.713	37.76098
500.921	-0.17561
501.129	41.97663
501.338	50.4082
501.546	73.59693
501.754	73.59693
501.962	27.22227
502.171	124.19996
502.379	33.54542
502.587	44.08449
502.795	84.13817
503.004	-25.46235
503.212	18.79172
503.42	52.51615
503.628	-12.81942
503.837	94.67998
504.045	6.14661
504.253	179.03394
504.461	58.84015
504.669	109.43943
504.877	33.54542
505.085	71.48875
505.294	54.62413
505.502	8.25407
505.71	63.05626
505.918	54.62413
506.126	92.57157
506.334	41.97663
506.542	-52.8523
506.75	138.96154
506.958	67.27246
507.166	126.30869
507.374	25.11459
507.582	119.98255
507.79	60.94819
507.998	69.38059
508.206	103.11382
508.414	41.97663
508.622	94.67998
508.83	86.24649
509.037	8.25407
509.245	75.70514
509.453	101.00532
509.661	75.70514
509.869	52.51615
510.077	77.81336
510.285	124.19996
510.492	-12.81942
510.7	56.73213
510.908	117.87389
511.116	86.24649
511.324	35.65319
511.531	58.84015
511.739	67.27246
511.947	101.00532
512.155	84.13817
512.362	113.65661
512.57	86.24649
512.778	29.32996
512.985	101.00532
513.193	75.70514
513.401	111.54801
513.608	52.51615
513.816	46.19237
514.024	92.57157
514.231	143.17933
514.439	94.67998
514.646	20.89932
514.854	18.79172
515.061	54.62413
515.269	82.02988
515.477	138.96154
515.684	25.11459
515.892	141.07043
516.099	79.92161
516.307	73.59693
516.514	67.27246
516.722	143.17933
516.929	98.89685
517.136	77.81336
517.344	128.41744
517.551	96.7884
517.759	44.08449
517.966	54.62413
518.173	109.43943
518.381	109.43943
518.588	107.33087
518.796	134.74384
519.003	130.52622
519.21	126.30869
519.418	134.74384
519.625	69.38059
519.832	77.81336
520.039	98.89685
520.247	20.89932
520.454	65.16435
520.661	111.54801
520.868	145.28826
521.076	164.26954
521.283	206.45618
521.49	111.54801
521.697	191.68993
521.904	71.48875
522.112	141.07043
522.319	189.58055
522.526	98.89685
522.733	168.48784
522.94	79.92161
523.147	132.63502
523.354	130.52622
523.561	138.96154
523.768	143.17933
523.975	124.19996
524.183	136.85268
524.39	113.65661
524.597	187.47118
524.804	132.63502
525.011	155.83321
525.218	191.68993
525.425	217.0041
525.632	168.48784
525.838	117.87389
526.045	145.28826
526.252	227.55252
526.459	172.70621
526.666	227.55252
526.873	96.7884
527.08	231.77202
527.287	181.14322
527.494	168.48784
527.701	189.58055
527.907	202.23715
528.114	92.57157
528.321	168.48784
528.528	227.55252
528.735	181.14322
528.941	134.74384
529.148	191.68993
529.355	214.89448
529.562	164.26954
529.768	185.36184
529.975	138.96154
530.182	166.37868
530.388	179.03394
530.595	92.57157
530.802	221.22341
531.008	240.21127
531.215	113.65661
531.422	229.66226
531.628	176.92467
531.835	229.66226
532.042	151.61516
532.248	195.90876
532.455	143.17933
532.661	219.11374
532.868	183.25252
533.074	208.56572
533.281	240.21127
533.487	210.67529
533.694	276.08147
533.9	187.47118
534.107	193.79933
534.313	257.09068
534.52	254.98069
534.726	238.10143
534.933	223.33309
535.139	252.87071
535.345	261.31072
535.552	254.98069
535.758	339.39489
535.965	284.52232
536.171	235.99161
536.377	252.87071
536.584	261.31072
536.79	252.87071
536.996	305.62571
537.203	240.21127
537.409	206.45618
537.615	286.63257
537.821	235.99161
538.028	292.96345
538.234	221.22341
538.44	233.8818
538.646	282.41208
538.853	347.8379
539.059	221.22341
539.265	320.39917
539.471	254.98069
539.677	320.39917
539.883	311.95708
540.09	265.53084
540.296	257.09068
540.502	377.39057
540.708	320.39917
540.914	328.84154
541.12	347.8379
541.326	478.73838
541.532	404.83529
541.738	373.16856
541.944	339.39489
542.15	354.17033
542.356	339.39489
542.562	387.9459
542.768	337.28419
542.974	387.9459
543.18	320.39917
543.386	337.28419
543.592	320.39917
543.798	402.72406
544.004	383.72372
544.21	392.16815
544.415	404.83529
544.621	349.94869
544.827	364.72473
545.033	347.8379
545.239	501.96892
545.445	463.95624
545.651	421.72573
545.856	392.16815
546.062	377.39057
546.268	413.28038
546.474	328.84154
546.679	558.99671
546.885	371.05758
547.091	442.8402
547.297	434.39422
547.502	440.72869
547.708	466.06793
547.914	474.51483
548.119	398.50165
548.325	531.53761
548.531	428.0599
548.736	356.28118
548.942	544.21075
549.147	497.74505
549.353	438.61718
549.559	432.28277
549.764	444.95174
549.97	506.19285
550.175	455.50964
550.381	594.90821
550.586	387.9459
550.792	489.29749
550.997	529.42547
551.203	544.21075
551.408	400.61285
551.614	529.42547
551.819	506.19285
552.025	470.29135
552.23	447.06329
552.435	535.76193
552.641	472.40309
552.846	632.93621
553.052	597.02077
553.257	556.88439
553.462	537.87412
553.668	632.93621
553.873	554.77208
554.078	533.64976
554.283	611.80904
554.489	558.99671
554.694	630.82344
554.899	698.43809
555.105	523.08913
555.31	609.69639
555.515	592.79566
555.72	785.08593
555.925	573.78333
556.131	694.21183
556.336	546.32299
556.541	632.93621
556.746	556.88439
556.951	679.42027
557.156	628.71068
557.361	675.19421
557.567	662.51631
557.772	725.90988
557.977	637.1618
558.182	683.64637
558.387	666.74223
558.592	801.99481
558.797	677.30723
559.002	759.72379
559.207	590.68313
559.412	753.38348
559.617	556.88439
559.822	835.81437
560.027	713.23036
560.232	814.67687
560.437	626.59793
560.642	776.63172
560.847	736.47644
561.051	785.08593
561.256	649.83884
561.461	844.26962
561.666	744.92987
561.871	713.23036
562.076	734.3631
562.281	911.91652
562.485	804.10846
562.69	873.8641
562.895	728.02317
563.1	869.63621
563.305	700.55124
563.509	844.26962
563.714	742.8165
563.919	1064.14935
564.123	778.74526
564.328	954.19992
564.533	643.50026
564.737	988.02869
564.942	882.31996
565.147	897.11805
565.351	768.17767
565.556	859.06665
565.761	721.68333
565.965	996.48615
566.17	863.29445
566.374	884.43395
566.579	804.10846
566.784	852.72501
566.988	810.44948
567.193	867.52228
567.397	928.82952
567.602	945.743
567.806	882.31996
568.011	941.51459
568.215	873.8641
568.42	966.8855
568.624	935.17202
568.828	1174.11341
569.033	873.8641
569.237	1021.85913
569.442	968.99979
569.646	939.40039
569.85	966.8855
570.055	1119.12982
570.259	1043.00395
570.463	985.91434
570.668	1047.23299
570.872	1043.00395
571.076	1004.94371
571.281	1182.57266
571.485	1038.77494
571.689	1150.85078
571.893	996.48615
572.098	1114.90044
572.302	1015.5158
572.506	1093.7538
572.71	1076.83684
572.914	1047.23299
573.119	983.8
573.323	1125.47393
573.527	1125.47393
573.731	1167.76901
573.935	1174.11341
574.139	1117.01513
574.343	1026.08805
574.547	1260.82331
574.751	1114.90044
574.955	1184.68748
575.159	1174.11341
575.364	1216.41025
575.568	1100.09774
575.772	1290.43267
575.976	1207.95077
576.18	1279.85784
576.383	1207.95077
576.587	1387.72312
576.791	1095.86844
576.995	1305.23751
577.199	1203.72105
577.403	1246.01882
577.607	1226.98467
577.811	1396.18328
578.015	1150.85078
578.219	1271.39803
578.422	1275.62793
578.626	1313.69746
578.83	1262.93825
579.034	1294.66261
579.238	1326.38745
579.442	1385.60808
579.645	1171.9986
579.849	1571.73173
580.053	1258.70837
580.257	1402.52841
580.46	1265.05319
580.664	1474.44013
580.868	1275.62793
581.071	1396.18328
581.275	1351.76759
581.479	1317.92745
581.682	1383.49304
581.886	1417.33374
582.09	1432.13909
