Data from mixed_try1_USB4F045381__24__00172.txt Node

Date: Thu Apr 03 20:12:02 EDT 2025
User: mmckonesweet
Spectrometer: USB4F04538
Trigger mode: 4
Integration Time (sec): 2.700000E-3
Scans to average: 1
Electric dark correction enabled: true
Nonlinearity correction enabled: true
Boxcar width: 0
XAxis mode: Wavelengths
Number of Pixels in Spectrum: 3648
>>>>>Begin Spectral Data<<<<<
345.52	-24.93558
345.736	-24.93558
345.952	-24.93558
346.168	23.53386
346.384	-8.0781
346.6	-83.9242
346.816	-10.18537
347.032	-43.89836
347.248	23.53386
347.464	23.53386
347.68	8.78094
347.896	44.61145
348.112	25.64151
348.328	-5.9708
348.544	-10.18537
348.76	25.64151
348.975	2.45862
349.191	-52.32561
349.407	-52.32561
349.623	-27.04265
349.839	-5.9708
350.055	61.47521
350.27	-67.07234
350.486	19.31862
350.702	86.77357
350.918	-18.61421
351.133	-10.18537
351.349	-10.18537
351.565	-10.18537
351.781	-35.47071
351.996	17.21104
352.212	23.53386
352.428	-14.39983
352.644	-69.17891
352.859	-8.0781
353.075	-62.85911
353.291	4.56604
353.506	48.82725
353.722	23.53386
353.938	44.61145
354.153	15.10348
354.369	27.74919
354.584	-18.61421
354.8	-27.04265
355.016	-20.72135
355.231	23.53386
355.447	-14.39983
355.662	-81.81781
355.878	40.39575
356.093	-43.89836
356.309	-33.36373
356.524	-3.86348
356.74	-10.18537
356.955	10.88843
357.171	-46.00521
357.386	15.10348
357.602	0.35123
357.817	17.21104
358.033	-1.75614
358.248	10.88843
358.464	40.39575
358.679	59.36716
358.895	-52.32561
359.11	15.10348
359.325	-10.18537
359.541	-123.94071
359.756	82.55695
359.972	34.07236
360.187	25.64151
360.402	6.67348
360.618	2.45862
360.833	-31.25673
361.048	-86.03057
361.264	53.04315
361.479	-10.18537
361.694	-41.79148
361.909	-39.68458
362.125	-24.93558
362.34	-81.81781
362.555	17.21104
362.77	-33.36373
362.986	-22.82848
363.201	-24.93558
363.416	27.74919
363.631	36.18013
363.847	-18.61421
364.062	4.56604
364.277	-109.19889
364.492	44.61145
364.707	8.78094
364.922	4.56604
365.138	107.85801
365.353	23.53386
365.568	-41.79148
365.783	31.96461
365.998	-27.04265
366.213	-27.04265
366.428	-22.82848
366.643	-14.39983
366.858	-16.50703
367.073	-8.0781
367.288	-1.75614
367.503	-35.47071
367.718	-54.43236
367.933	59.36716
368.148	-22.82848
368.363	-58.64579
368.578	-52.32561
368.793	57.25913
369.008	-14.39983
369.223	0.35123
369.438	48.82725
369.653	-8.0781
369.868	2.45862
370.083	-18.61421
370.298	-10.18537
370.513	25.64151
370.728	-5.9708
370.943	-31.25673
371.157	-37.57766
371.372	53.04315
371.587	-14.39983
371.802	-39.68458
372.017	-16.50703
372.232	-79.71139
372.446	23.53386
372.661	-27.04265
372.876	53.04315
373.091	-35.47071
373.306	57.25913
373.52	-31.25673
373.735	-41.79148
373.95	-20.72135
374.165	67.79949
374.379	-14.39983
374.594	-5.9708
374.809	40.39575
375.023	-27.04265
375.238	-22.82848
375.453	-56.53909
375.667	15.10348
375.882	-10.18537
376.097	-14.39983
376.311	8.78094
376.526	-10.18537
376.741	-10.18537
376.955	8.78094
377.17	-24.93558
377.384	65.69137
377.599	-3.86348
377.813	10.88843
378.028	-27.04265
378.242	15.10348
378.457	-67.07234
378.672	-41.79148
378.886	15.10348
379.101	-16.50703
379.315	-24.93558
379.53	31.96461
379.744	19.31862
379.958	15.10348
380.173	-33.36373
380.387	23.53386
380.602	42.50359
380.816	-10.18537
381.031	-3.86348
381.245	67.79949
381.459	8.78094
381.674	8.78094
381.888	17.21104
382.103	50.93519
382.317	-24.93558
382.531	15.10348
382.746	-75.49848
382.96	-14.39983
383.174	-5.9708
383.388	15.10348
383.603	23.53386
383.817	65.69137
384.031	-90.24323
384.246	55.15113
384.46	48.82725
384.674	-14.39983
384.888	-18.61421
385.103	-22.82848
385.317	-43.89836
385.531	23.53386
385.745	-24.93558
385.959	-52.32561
386.174	-3.86348
386.388	29.85689
386.602	-31.25673
386.816	4.56604
387.03	-33.36373
387.244	-14.39983
387.458	23.53386
387.672	21.42623
387.887	-1.75614
388.101	57.25913
388.315	-109.19889
388.529	19.31862
388.743	10.88843
388.957	31.96461
389.171	34.07236
389.385	-10.18537
389.599	-18.61421
389.813	12.99594
390.027	-1.75614
390.241	48.82725
390.455	-33.36373
390.669	-5.9708
390.883	-27.04265
391.097	-5.9708
391.311	38.28793
391.525	40.39575
391.738	-24.93558
391.952	2.45862
392.166	29.85689
392.38	2.45862
392.594	-3.86348
392.808	-37.57766
393.022	-24.93558
393.236	15.10348
393.449	-50.21884
393.663	0.35123
393.877	8.78094
394.091	-18.61421
394.305	31.96461
394.518	8.78094
394.732	38.28793
394.946	-64.96574
395.16	-35.47071
395.373	15.10348
395.587	8.78094
395.801	17.21104
396.015	-29.1497
396.228	10.88843
396.442	-1.75614
396.656	42.50359
396.869	-75.49848
397.083	48.82725
397.297	40.39575
397.51	50.93519
397.724	-35.47071
397.938	-16.50703
398.151	-24.93558
398.365	-22.82848
398.578	-1.75614
398.792	10.88843
399.005	10.88843
399.219	-58.64579
399.433	46.71934
399.646	65.69137
399.86	-77.60495
400.073	-67.07234
400.287	29.85689
400.5	-10.18537
400.714	-86.03057
400.927	-16.50703
401.141	27.74919
401.354	15.10348
401.567	0.35123
401.781	-67.07234
401.994	-43.89836
402.208	-18.61421
402.421	-8.0781
402.635	15.10348
402.848	-35.47071
403.061	-1.75614
403.275	-10.18537
403.488	-100.77442
403.701	0.35123
403.915	6.67348
404.128	-3.86348
404.341	-48.11204
404.555	-39.68458
404.768	-1.75614
404.981	17.21104
405.195	-27.04265
405.408	57.25913
405.621	-16.50703
405.834	15.10348
406.048	44.61145
406.261	-10.18537
406.474	17.21104
406.687	-54.43236
406.9	-52.32561
407.114	40.39575
407.327	-41.79148
407.54	-18.61421
407.753	31.96461
407.966	53.04315
408.179	40.39575
408.392	10.88843
408.605	-29.1497
408.819	-5.9708
409.032	-1.75614
409.245	6.67348
409.458	17.21104
409.671	-16.50703
409.884	19.31862
410.097	-50.21884
410.31	90.99028
410.523	-5.9708
410.736	38.28793
410.949	48.82725
411.162	12.99594
411.375	-46.00521
411.588	-3.86348
411.801	6.67348
412.014	-43.89836
412.227	27.74919
412.44	-35.47071
412.653	-58.64579
412.865	21.42623
413.078	-24.93558
413.291	15.10348
413.504	-69.17891
413.717	6.67348
413.93	23.53386
414.143	-73.39198
414.356	27.74919
414.568	27.74919
414.781	31.96461
414.994	34.07236
415.207	-27.04265
415.42	-10.18537
415.632	-1.75614
415.845	-10.18537
416.058	-43.89836
416.271	-27.04265
416.483	8.78094
416.696	17.21104
416.909	27.74919
417.121	31.96461
417.334	-1.75614
417.547	40.39575
417.759	31.96461
417.972	65.69137
418.185	-33.36373
418.397	-56.53909
418.61	-5.9708
418.823	36.18013
419.035	88.88192
419.248	-43.89836
419.46	29.85689
419.673	-35.47071
419.885	-10.18537
420.098	57.25913
420.311	10.88843
420.523	42.50359
420.736	-56.53909
420.948	53.04315
421.161	27.74919
421.373	-102.88057
421.586	-35.47071
421.798	2.45862
422.01	-14.39983
422.223	63.58328
422.435	-10.18537
422.648	38.28793
422.86	-16.50703
423.073	-22.82848
423.285	-3.86348
423.497	-52.32561
423.71	2.45862
423.922	23.53386
424.134	65.69137
424.347	-35.47071
424.559	-31.25673
424.771	29.85689
424.984	-39.68458
425.196	27.74919
425.408	2.45862
425.621	21.42623
425.833	-64.96574
426.045	48.82725
426.257	-39.68458
426.47	-10.18537
426.682	6.67348
426.894	-10.18537
427.106	-16.50703
427.318	42.50359
427.531	36.18013
427.743	-33.36373
427.955	53.04315
428.167	6.67348
428.379	17.21104
428.591	15.10348
428.804	-37.57766
429.016	2.45862
429.228	-5.9708
429.44	-41.79148
429.652	-27.04265
429.864	-39.68458
430.076	2.45862
430.288	61.47521
430.5	-27.04265
430.712	31.96461
430.924	57.25913
431.136	-31.25673
431.348	-18.61421
431.56	-20.72135
431.772	-3.86348
431.984	31.96461
432.196	23.53386
432.408	19.31862
432.62	-12.29261
432.832	-43.89836
433.044	69.90763
433.256	-5.9708
433.468	-10.18537
433.679	-3.86348
433.891	31.96461
434.103	-18.61421
434.315	-20.72135
434.527	-18.61421
434.739	31.96461
434.95	-1.75614
435.162	-27.04265
435.374	-14.39983
435.586	-64.96574
435.798	4.56604
436.009	25.64151
436.221	40.39575
436.433	-39.68458
436.645	-1.75614
436.856	15.10348
437.068	-18.61421
437.28	23.53386
437.491	61.47521
437.703	0.35123
437.915	34.07236
438.126	19.31862
438.338	-50.21884
438.55	15.10348
438.761	63.58328
438.973	-29.1497
439.184	78.34042
439.396	-1.75614
439.608	34.07236
439.819	0.35123
440.031	65.69137
440.242	10.88843
440.454	-33.36373
440.665	6.67348
440.877	63.58328
441.088	27.74919
441.3	-8.0781
441.511	36.18013
441.723	53.04315
441.934	10.88843
442.146	-14.39983
442.357	6.67348
442.569	65.69137
442.78	40.39575
442.991	42.50359
443.203	15.10348
443.414	-123.94071
443.626	-37.57766
443.837	55.15113
444.048	-14.39983
444.26	-14.39983
444.471	0.35123
444.682	-56.53909
444.894	25.64151
445.105	19.31862
445.316	-52.32561
445.528	67.79949
445.739	-52.32561
445.95	101.53244
446.161	17.21104
446.373	-1.75614
446.584	57.25913
446.795	82.55695
447.006	61.47521
447.217	-1.75614
447.429	-14.39983
447.64	65.69137
447.851	40.39575
448.062	-18.61421
448.273	-60.75247
448.484	-20.72135
448.695	-10.18537
448.907	8.78094
449.118	0.35123
449.329	95.20708
449.54	-5.9708
449.751	-12.29261
449.962	-50.21884
450.173	-10.18537
450.384	23.53386
450.595	23.53386
450.806	-20.72135
451.017	15.10348
451.228	67.79949
451.439	-14.39983
451.65	-24.93558
451.861	-18.61421
452.072	46.71934
452.283	23.53386
452.494	40.39575
452.705	-1.75614
452.915	0.35123
453.126	15.10348
453.337	42.50359
453.548	6.67348
453.759	40.39575
453.97	23.53386
454.181	40.39575
454.391	-14.39983
454.602	29.85689
454.813	-3.86348
455.024	19.31862
455.235	-10.18537
455.445	74.12398
455.656	-14.39983
455.867	36.18013
456.078	2.45862
456.288	93.09867
456.499	-1.75614
456.71	17.21104
456.921	-1.75614
457.131	23.53386
457.342	65.69137
457.553	59.36716
457.763	-1.75614
457.974	-67.07234
458.184	29.85689
458.395	23.53386
458.606	90.99028
458.816	40.39575
459.027	42.50359
459.237	36.18013
459.448	10.88843
459.659	42.50359
459.869	-56.53909
460.08	25.64151
460.29	15.10348
460.501	-18.61421
460.711	107.85801
460.922	-5.9708
461.132	-10.18537
461.343	25.64151
461.553	-5.9708
461.764	65.69137
461.974	19.31862
462.184	63.58328
462.395	-41.79148
462.605	-18.61421
462.816	15.10348
463.026	10.88843
463.236	31.96461
463.447	15.10348
463.657	57.25913
463.867	40.39575
464.078	-31.25673
464.288	57.25913
464.498	-8.0781
464.709	34.07236
464.919	25.64151
465.129	25.64151
465.339	-24.93558
465.55	120.50972
465.76	95.20708
465.97	63.58328
466.18	57.25913
466.391	65.69137
466.601	-12.29261
466.811	82.55695
467.021	48.82725
467.231	50.93519
467.441	25.64151
467.651	42.50359
467.862	99.42397
468.072	99.42397
468.282	48.82725
468.492	-1.75614
468.702	6.67348
468.912	-33.36373
469.122	61.47521
469.332	40.39575
469.542	23.53386
469.752	-1.75614
469.962	31.96461
470.172	63.58328
470.382	65.69137
470.592	38.28793
470.802	57.25913
471.012	34.07236
471.222	103.64094
471.432	65.69137
471.642	69.90763
471.852	27.74919
472.062	65.69137
472.272	31.96461
472.482	50.93519
472.691	40.39575
472.901	-10.18537
473.111	118.40105
473.321	124.72714
473.531	86.77357
473.741	65.69137
473.95	67.79949
474.16	61.47521
474.37	38.28793
474.58	57.25913
474.79	105.74946
474.999	50.93519
475.209	-24.93558
475.419	38.28793
475.628	57.25913
475.838	61.47521
476.048	78.34042
476.258	59.36716
476.467	23.53386
476.677	124.72714
476.886	74.12398
477.096	31.96461
477.306	80.44868
477.515	67.79949
477.725	36.18013
477.935	86.77357
478.144	135.27105
478.354	65.69137
478.563	93.09867
478.773	158.46953
478.982	120.50972
479.192	101.53244
479.401	65.69137
479.611	179.56125
479.82	109.96657
480.03	158.46953
480.239	46.71934
480.449	124.72714
480.658	107.85801
480.868	145.81549
481.077	154.25143
481.287	101.53244
481.496	219.64116
481.705	82.55695
481.915	160.57861
482.124	124.72714
482.333	230.1897
482.543	114.18377
482.752	154.25143
482.961	166.90597
483.171	198.54556
483.38	124.72714
483.589	230.1897
483.799	200.65503
484.008	141.59765
484.217	225.97022
484.426	204.87403
484.636	194.32669
484.845	270.27857
485.054	228.07995
485.263	247.06838
485.472	253.3982
485.682	327.25857
485.891	225.97022
486.1	293.49103
486.309	278.71921
486.518	276.60902
486.727	354.69804
486.936	314.5952
487.146	297.71172
487.355	318.81625
487.564	282.93964
487.773	325.14796
487.982	306.15332
488.191	329.36919
488.4	301.93248
488.609	344.14405
488.818	310.37423
489.027	299.82209
489.236	382.14042
489.445	420.14221
489.654	394.80709
489.863	411.69691
490.072	363.14154
490.281	504.60887
490.49	403.25187
490.698	428.58776
490.907	462.37249
491.116	466.59585
491.325	403.25187
491.534	496.16112
491.743	375.80731
491.952	447.59118
492.16	377.91833
492.369	420.14221
492.578	525.72925
492.787	472.93102
492.996	597.54891
493.204	582.76124
493.413	475.04277
493.622	698.96638
493.831	557.41247
494.039	741.23147
494.248	667.27047
494.457	586.98623
494.665	548.96331
494.874	599.66148
495.083	633.46441
495.291	656.70575
495.5	692.62699
495.709	726.4382
495.917	544.73881
496.126	673.60945
496.335	722.21165
496.543	760.25215
496.752	705.30587
496.96	707.41905
497.169	682.06158
497.377	743.34484
497.586	817.319
497.794	732.77811
498.003	665.1575
498.211	878.6205
498.42	813.09159
498.628	825.77394
498.837	777.16011
499.045	916.67325
499.254	785.61432
499.462	952.61424
499.671	884.96245
499.879	929.35806
500.087	946.27156
500.296	1018.15885
500.504	980.09991
500.713	1045.6471
500.921	937.81475
501.129	1032.96009
501.338	844.79808
501.546	1066.79256
501.754	891.30447
501.962	1098.51175
502.171	1079.4801
502.379	1094.28246
502.587	942.04314
502.795	1202.13491
503.004	1013.92998
503.212	1227.51339
503.42	1083.70932
503.628	1149.26471
503.837	1130.23204
504.045	1193.67552
504.253	1166.18291
504.461	1293.07638
504.669	1178.87173
504.877	1261.35204
505.085	1227.51339
505.294	1369.21656
505.502	1172.5273
505.71	1394.597
505.918	1252.89232
506.126	1441.12806
506.334	1303.65127
506.542	1506.69461
506.75	1307.88124
506.958	1396.71204
507.166	1373.44662
507.374	1500.34947
507.582	1409.40231
507.79	1536.30513
507.998	1398.82708
508.206	1578.6055
508.414	1466.50869
508.622	1474.96889
508.83	1441.12806
509.037	1532.07507
509.245	1424.20765
509.453	1716.07618
509.661	1557.45538
509.869	1553.22534
510.077	1502.46452
510.285	1639.93984
510.492	1529.96003
510.7	1775.29046
510.908	1354.41137
511.116	1671.66375
511.324	1616.67529
511.531	1747.79847
511.739	1548.9953
511.947	1849.30387
512.155	1620.90523
512.362	1631.48003
512.57	1570.14547
512.778	1775.29046
512.985	1756.25761
513.193	1807.01115
513.401	1591.29549
513.608	1832.387
513.816	1851.41846
514.024	1692.81269
514.231	1811.2405
514.439	1859.87676
514.646	1984.62671
514.854	1938.11209
515.061	1826.0431
515.269	2054.39283
515.477	1885.25118
515.684	1978.28398
515.892	1885.25118
516.099	1995.19779
516.307	1845.07468
516.514	2157.97058
516.722	1876.79312
516.929	2094.55778
517.136	1933.88335
517.344	2136.83376
517.551	2026.91008
517.759	2162.19785
517.966	1912.73928
518.173	2107.2409
518.381	2054.39283
518.588	2322.80836
518.796	2126.26506
519.003	2314.35649
519.21	2231.94293
519.418	2377.74165
519.625	2181.22015
519.832	2343.93734
520.039	2172.76588
520.247	2498.14773
520.454	2350.27584
520.661	2377.74165
520.868	2229.82958
521.076	2660.74281
521.283	2234.05627
521.49	2584.73317
521.697	2375.62896
521.904	2502.37186
522.112	2553.05785
522.319	2588.95635
522.526	2458.01627
522.733	2398.86802
522.94	2400.9806
523.147	2601.62558
523.354	2479.13859
523.561	2848.5836
523.768	2447.4547
523.975	2728.29321
524.183	2745.17872
524.39	2838.0336
524.597	2643.85316
524.804	2882.34122
525.011	2542.49882
525.218	2861.24313
525.425	2669.18733
525.632	2626.96272
525.838	2854.91343
526.045	2698.74153
526.252	2669.18733
526.459	3027.87814
526.666	2831.70343
526.873	2958.28236
527.08	2728.29321
527.287	2998.35467
527.494	2740.95742
527.701	3086.91602
527.907	2966.71909
528.114	3154.37273
528.321	2941.40819
528.528	3097.4572
528.735	2922.42363
528.941	3032.09554
529.148	2816.93255
529.355	3112.2142
529.562	3011.00796
529.768	3082.69943
529.975	2956.17314
530.182	3270.27496
530.388	3124.86243
530.595	3274.48864
530.802	3065.83246
531.008	3398.76117
531.215	3379.80825
531.422	3504.02888
531.628	3179.66474
531.835	3436.6627
532.042	3297.66264
532.248	3468.2429
532.455	3221.81285
532.661	3445.08448
532.868	3360.85392
533.074	3579.79349
533.281	3322.94101
533.487	3495.60912
533.694	3310.30213
533.9	3663.94809
534.107	3386.12605
534.313	3666.05156
534.52	3457.71662
534.726	3596.62682
534.933	3596.62682
535.139	3790.1227
535.345	3626.08225
535.552	3655.53399
535.758	3573.48069
535.965	3628.18607
536.171	3461.92718
536.377	3756.48295
536.584	3676.56867
536.79	3941.43889
536.996	3752.27763
537.203	4000.25591
537.409	3731.24987
537.615	3958.24538
537.821	3750.17494
538.028	3983.45268
538.234	3748.07224
538.44	4126.2381
538.646	3865.79371
538.853	4033.85844
539.059	3834.26724
539.265	3979.25166
539.471	3962.4468
539.677	3909.92323
539.883	3779.61081
540.09	4080.05329
540.296	4050.65773
540.502	4371.6852
540.708	4149.3267
540.914	4323.45808
541.12	4216.47906
541.326	4394.74629
541.532	4235.36175
541.738	4505.82173
541.944	4109.44479
542.15	4491.15492
542.356	4231.16575
542.562	4346.52465
542.768	4306.68074
542.974	4445.05223
543.18	4210.18445
543.386	4621.02309
543.592	4304.58348
543.798	4556.09968
544.004	4260.53599
544.21	4516.29735
544.415	4388.45716
544.621	4744.52751
544.827	4245.85139
545.033	4499.53609
545.239	4491.15492
545.445	4583.32823
545.651	4340.23403
545.856	4662.89777
546.062	4518.39241
546.268	4570.76167
546.474	4554.00502
546.679	4348.62148
546.885	4629.39874
547.091	4847.03915
547.297	4394.74629
547.502	4505.82173
547.708	4821.93931
547.914	4616.83513
548.119	4740.34221
548.325	5024.73527
548.531	4629.39874
548.736	4725.69292
548.942	4771.72979
549.147	4909.77437
549.353	4836.58128
549.559	4966.21842
549.764	4872.13571
549.97	4884.68275
550.175	4916.04676
550.381	5087.4118
550.586	4719.41432
550.792	5281.57613
550.997	4976.66919
551.203	5051.89766
551.408	4916.04676
551.614	5072.78914
551.819	4901.41086
552.025	5168.86008
552.23	5070.7001
552.435	5260.70793
552.641	5256.53401
552.846	5269.05549
553.052	5108.29934
553.257	5350.42461
553.462	5264.88176
553.668	5425.50291
553.873	5333.73641
554.078	5450.52225
554.283	5218.96451
554.489	5552.64937
554.694	5298.26902
554.899	5483.87609
555.105	5369.19704
555.31	5306.61489
555.515	5283.66283
555.72	5525.55993
555.925	5317.04672
556.131	5510.97166
556.336	5325.39175
556.541	5556.81662
556.746	5444.26773
556.951	5565.15085
557.156	5521.39197
557.361	5592.23447
557.567	5708.85681
557.772	5590.15125
557.977	5402.56555
558.182	5700.5291
558.387	5565.15085
558.592	5954.3545
558.797	5552.64937
559.002	5856.61089
559.207	5540.14705
559.412	5727.59279
559.617	5806.67917
559.822	5821.24399
560.027	5785.87027
560.232	5692.20101
560.437	5548.48202
560.642	5823.32459
560.847	5508.88752
561.051	5881.57166
561.256	5827.4857
561.461	5867.01163
561.666	5771.30263
561.871	6052.04603
562.076	5839.9685
562.281	6257.65182
562.485	5864.93153
562.69	5881.57166
562.895	5790.03223
563.1	6103.98841
563.305	5752.57112
563.509	6058.27989
563.714	6087.36845
563.919	5908.60866
564.123	5968.9076
564.328	6074.90249
564.533	6060.3578
564.737	6126.83841
564.942	6153.83928
565.147	6297.08523
565.351	6299.16043
565.556	6255.57614
565.761	6155.9161
565.965	6259.72747
566.17	6056.20196
566.374	6290.85946
566.579	6288.78416
566.784	6189.14212
566.988	6303.31078
567.193	6407.03909
567.397	6085.29085
567.602	6340.6597
567.806	6241.04575
568.011	6483.76055
568.215	6392.52064
568.42	6367.62921
568.624	6160.06969
568.828	6251.42472
569.033	6305.38592
569.237	6545.9438
569.442	6643.32237
569.646	6340.6597
569.85	6236.894
570.055	6690.95716
570.259	6263.87871
570.463	6587.38772
570.668	6400.81704
570.872	6595.6754
571.076	6541.7989
571.281	6597.74726
571.485	6525.21836
571.689	6622.60779
571.893	6606.03447
572.098	6786.19033
572.302	6504.49061
572.506	6672.31891
572.71	6521.073
572.914	6695.09874
573.119	6632.96537
573.323	6918.60833
573.527	6746.86076
573.731	6811.02581
573.935	6910.33493
574.139	6800.67809
574.343	6645.3937
574.547	6837.9272
574.751	6833.78877
574.955	7162.51164
575.159	7028.19678
575.364	6984.78252
575.568	6885.51256
575.772	7046.79986
575.976	6815.16473
576.18	6993.05267
576.383	6813.09528
576.587	7127.39225
576.791	7003.38984
576.995	7294.6684
577.199	7048.86676
