Data from mixed_try1_USB4F045381__32__00136.txt Node

Date: Thu Apr 03 20:02:26 EDT 2025
User: mmckonesweet
Spectrometer: USB4F04538
Trigger mode: 4
Integration Time (sec): 2.700000E-3
Scans to average: 1
Electric dark correction enabled: true
Nonlinearity correction enabled: true
Boxcar width: 0
XAxis mode: Wavelengths
Number of Pixels in Spectrum: 3648
>>>>>Begin Spectral Data<<<<<
345.52	-17.20943
345.736	-17.20943
345.952	-17.20943
346.168	-69.8811
346.384	16.50851
346.6	-10.88778
346.816	-17.20943
347.032	-27.74501
347.248	-25.63794
347.464	18.61609
347.68	35.47754
347.896	46.01671
348.112	64.98867
348.328	-23.53085
348.544	-27.74501
348.76	35.47754
348.975	-67.77453
349.191	-23.53085
349.407	-23.53085
349.623	29.15432
349.839	-65.66794
350.055	-59.34802
350.27	14.40096
350.486	8.07845
350.702	43.90883
350.918	33.36978
351.133	-27.74501
351.349	-10.88778
351.565	27.04663
351.781	-2.45859
351.996	-27.74501
352.212	-25.63794
352.428	46.01671
352.644	-48.81431
352.859	-6.67324
353.075	-25.63794
353.291	64.98867
353.506	10.18593
353.722	-76.20064
353.938	22.83131
354.153	8.07845
354.369	16.50851
354.584	31.26204
354.8	-12.99502
355.016	109.26371
355.231	56.55646
355.447	35.47754
355.662	-50.9211
355.878	111.37229
356.093	102.93811
356.309	-44.60065
356.524	1.75615
356.74	-10.88778
356.955	-12.99502
357.171	48.12461
357.386	-0.35123
357.602	-19.31659
357.817	-17.20943
358.033	-2.45859
358.248	31.26204
358.464	27.04663
358.679	18.61609
358.895	1.75615
359.11	-10.88778
359.325	1.75615
359.541	-25.63794
359.756	67.09678
359.972	-2.45859
360.187	37.58533
360.402	-31.95906
360.618	1.75615
360.833	14.40096
361.048	-15.10224
361.264	1.75615
361.479	41.80097
361.694	64.98867
361.909	64.98867
362.125	14.40096
362.34	48.12461
362.555	77.63768
362.77	-23.53085
362.986	-10.88778
363.201	48.12461
363.416	-57.24133
363.631	-10.88778
363.847	-8.78052
364.062	100.82962
364.277	-2.45859
364.492	20.72369
364.707	24.93896
364.922	31.26204
365.138	69.20492
365.353	-15.10224
365.568	22.83131
365.783	39.69314
365.998	24.93896
366.213	-15.10224
366.428	31.26204
366.643	-53.02787
366.858	31.26204
367.073	115.58952
367.288	24.93896
367.503	58.66448
367.718	-8.78052
367.933	35.47754
368.148	50.23254
368.363	10.18593
368.578	31.26204
368.793	27.04663
369.008	22.83131
369.223	56.55646
369.438	-27.74501
369.653	-17.20943
369.868	22.83131
370.083	-34.06606
370.298	33.36978
370.513	41.80097
370.728	-17.20943
370.943	16.50851
371.157	16.50851
371.372	1.75615
371.587	90.28749
371.802	86.0708
372.017	50.23254
372.232	-8.78052
372.446	3.86356
372.661	8.07845
372.876	-4.56592
373.091	56.55646
373.306	69.20492
373.52	24.93896
373.735	-40.38689
373.95	-48.81431
374.165	39.69314
374.379	48.12461
374.594	-27.74501
374.809	-8.78052
375.023	-36.17303
375.238	-19.31659
375.453	1.75615
375.667	14.40096
375.882	16.50851
376.097	43.90883
376.311	-38.27997
376.526	46.01671
376.741	-61.45468
376.955	54.44846
377.17	8.07845
377.384	-23.53085
377.599	14.40096
377.813	16.50851
378.028	-2.45859
378.242	3.86356
378.457	22.83131
378.672	-59.34802
378.886	-6.67324
379.101	-69.8811
379.315	14.40096
379.53	18.61609
379.744	-8.78052
379.958	-40.38689
380.173	-42.49378
380.387	67.09678
380.602	-34.06606
380.816	22.83131
381.031	-21.42373
381.245	37.58533
381.459	39.69314
381.674	-12.99502
381.888	18.61609
382.103	60.77252
382.317	-40.38689
382.531	92.39587
382.746	83.96248
382.96	48.12461
383.174	56.55646
383.388	18.61609
383.603	75.52945
383.817	52.34049
384.031	-145.70005
384.246	62.88058
384.46	16.50851
384.674	5.97099
384.888	22.83131
385.103	22.83131
385.317	39.69314
385.531	37.58533
385.745	10.18593
385.959	10.18593
386.174	14.40096
386.388	10.18593
386.602	-4.56592
386.816	-27.74501
387.03	24.93896
387.244	27.04663
387.458	54.44846
387.672	1.75615
387.887	39.69314
388.101	41.80097
388.315	31.26204
388.529	31.26204
388.743	31.26204
388.957	39.69314
389.171	14.40096
389.385	10.18593
389.599	88.17913
389.813	16.50851
390.027	-34.06606
390.241	75.52945
390.455	24.93896
390.669	35.47754
390.883	-36.17303
391.097	56.55646
391.311	-57.24133
391.525	16.50851
391.738	-10.88778
391.952	27.04663
392.166	41.80097
392.38	90.28749
392.594	46.01671
392.808	-50.9211
393.022	10.18593
393.236	41.80097
393.449	58.66448
393.663	81.85419
393.877	35.47754
394.091	-10.88778
394.305	52.34049
394.518	-19.31659
394.732	88.17913
394.946	31.26204
395.16	48.12461
395.373	-53.02787
395.587	48.12461
395.801	29.15432
396.015	14.40096
396.228	-6.67324
396.442	-2.45859
396.656	73.42125
396.869	-2.45859
397.083	77.63768
397.297	22.83131
397.51	12.29343
397.724	-21.42373
397.938	39.69314
398.151	92.39587
398.365	-23.53085
398.578	86.0708
398.792	-8.78052
399.005	56.55646
399.219	-25.63794
399.433	109.26371
399.646	27.04663
399.86	-8.78052
400.073	-90.94533
400.287	41.80097
400.5	75.52945
400.714	67.09678
400.927	18.61609
401.141	-12.99502
401.354	109.26371
401.567	86.0708
401.781	1.75615
401.994	8.07845
402.208	22.83131
402.421	22.83131
402.635	16.50851
402.848	24.93896
403.061	90.28749
403.275	46.01671
403.488	48.12461
403.701	24.93896
403.915	-2.45859
404.128	77.63768
404.341	-8.78052
404.555	5.97099
404.768	43.90883
404.981	98.72115
405.195	-48.81431
405.408	31.26204
405.621	-0.35123
405.834	39.69314
406.048	48.12461
406.261	16.50851
406.474	1.75615
406.687	31.26204
406.9	-55.13461
407.114	52.34049
407.327	27.04663
407.54	8.07845
407.753	52.34049
407.966	-10.88778
408.179	-17.20943
408.392	16.50851
408.605	-0.35123
408.819	41.80097
409.032	-36.17303
409.245	-6.67324
409.458	31.26204
409.671	58.66448
409.884	-19.31659
410.097	16.50851
410.31	31.26204
410.523	1.75615
410.736	41.80097
410.949	-2.45859
411.162	22.83131
411.375	39.69314
411.588	77.63768
411.801	46.01671
412.014	8.07845
412.227	37.58533
412.44	3.86356
412.653	31.26204
412.865	56.55646
413.078	39.69314
413.291	-17.20943
413.504	22.83131
413.717	31.26204
413.93	54.44846
414.143	24.93896
414.356	1.75615
414.568	16.50851
414.781	-6.67324
414.994	24.93896
415.207	-0.35123
415.42	27.04663
415.632	20.72369
415.845	22.83131
416.058	-61.45468
416.271	64.98867
416.483	69.20492
416.696	43.90883
416.909	22.83131
417.121	60.77252
417.334	-48.81431
417.547	-15.10224
417.759	56.55646
417.972	56.55646
418.185	-10.88778
418.397	3.86356
418.61	31.26204
418.823	39.69314
419.035	-25.63794
419.248	86.0708
419.46	8.07845
419.673	-10.88778
419.885	-0.35123
420.098	18.61609
420.311	5.97099
420.523	22.83131
420.736	-17.20943
420.948	-2.45859
421.161	157.7665
421.373	94.50427
421.586	-10.88778
421.798	98.72115
422.01	-10.88778
422.223	5.97099
422.435	-15.10224
422.648	-19.31659
422.86	-4.56592
423.073	56.55646
423.285	-19.31659
423.497	24.93896
423.71	43.90883
423.922	10.18593
424.134	-19.31659
424.347	-27.74501
424.559	5.97099
424.771	14.40096
424.984	18.61609
425.196	-12.99502
425.408	31.26204
425.621	12.29343
425.833	56.55646
426.045	1.75615
426.257	50.23254
426.47	43.90883
426.682	64.98867
426.894	43.90883
427.106	-25.63794
427.318	-17.20943
427.531	14.40096
427.743	-65.66794
427.955	64.98867
428.167	-8.78052
428.379	-12.99502
428.591	35.47754
428.804	46.01671
429.016	29.15432
429.228	41.80097
429.44	90.28749
429.652	52.34049
429.864	64.98867
430.076	48.12461
430.288	-6.67324
430.5	39.69314
430.712	41.80097
430.924	1.75615
431.136	-17.20943
431.348	75.52945
431.56	33.36978
431.772	14.40096
431.984	-0.35123
432.196	52.34049
432.408	35.47754
432.62	77.63768
432.832	16.50851
433.044	10.18593
433.256	8.07845
433.468	1.75615
433.679	48.12461
433.891	71.31307
434.103	50.23254
434.315	8.07845
434.527	62.88058
434.739	46.01671
434.95	31.26204
435.162	-27.74501
435.374	83.96248
435.586	50.23254
435.798	27.04663
436.009	-40.38689
436.221	60.77252
436.433	56.55646
436.645	64.98867
436.856	-0.35123
437.068	-15.10224
437.28	12.29343
437.491	33.36978
437.703	12.29343
437.915	35.47754
438.126	56.55646
438.338	88.17913
438.55	64.98867
438.761	67.09678
438.973	52.34049
439.184	86.0708
439.396	98.72115
439.608	39.69314
439.819	20.72369
440.031	-40.38689
440.242	-8.78052
440.454	20.72369
440.665	35.47754
440.877	56.55646
441.088	81.85419
441.3	33.36978
441.511	67.09678
441.723	-2.45859
441.934	27.04663
442.146	92.39587
442.357	14.40096
442.569	64.98867
442.78	-10.88778
442.991	48.12461
443.203	-8.78052
443.414	52.34049
443.626	54.44846
443.837	79.74592
444.048	-17.20943
444.26	50.23254
444.471	77.63768
444.682	73.42125
444.894	111.37229
445.105	64.98867
445.316	24.93896
445.528	31.26204
445.739	58.66448
445.95	73.42125
446.161	14.40096
446.373	115.58952
446.584	60.77252
446.795	-44.60065
447.006	48.12461
447.217	69.20492
447.429	62.88058
447.64	35.47754
447.851	69.20492
448.062	5.97099
448.273	64.98867
448.484	22.83131
448.695	35.47754
448.907	31.26204
449.118	90.28749
449.329	-0.35123
449.54	-19.31659
449.751	90.28749
449.962	73.42125
450.173	52.34049
450.384	-21.42373
450.595	58.66448
450.806	50.23254
451.017	27.04663
451.228	60.77252
451.439	35.47754
451.65	14.40096
451.861	10.18593
452.072	-19.31659
452.283	14.40096
452.494	46.01671
452.705	48.12461
452.915	73.42125
453.126	48.12461
453.337	-2.45859
453.548	77.63768
453.759	43.90883
453.97	31.26204
454.181	52.34049
454.391	-25.63794
454.602	126.13296
454.813	100.82962
455.024	98.72115
455.235	18.61609
455.445	157.7665
455.656	-17.20943
455.867	-57.24133
456.078	69.20492
456.288	35.47754
456.499	43.90883
456.71	52.34049
456.921	86.0708
457.131	31.26204
457.342	64.98867
457.553	48.12461
457.763	115.58952
457.974	75.52945
458.184	64.98867
458.395	-8.78052
458.606	8.07845
458.816	56.55646
459.027	5.97099
459.237	43.90883
459.448	94.50427
459.659	5.97099
459.869	73.42125
460.08	64.98867
460.29	100.82962
460.501	88.17913
460.711	81.85419
460.922	92.39587
461.132	24.93896
461.343	100.82962
461.553	14.40096
461.764	119.80683
461.974	56.55646
462.184	8.07845
462.395	69.20492
462.605	67.09678
462.816	119.80683
463.026	35.47754
463.236	22.83131
463.447	41.80097
463.657	98.72115
463.867	73.42125
464.078	81.85419
464.288	52.34049
464.498	73.42125
464.709	64.98867
464.919	98.72115
465.129	96.6127
465.339	-25.63794
465.55	16.50851
465.76	3.86356
465.97	64.98867
466.18	81.85419
466.391	113.4809
466.601	79.74592
466.811	98.72115
467.021	73.42125
467.231	86.0708
467.441	31.26204
467.651	-12.99502
467.862	56.55646
468.072	41.80097
468.282	48.12461
468.492	81.85419
468.702	58.66448
468.912	48.12461
469.122	50.23254
469.332	136.67694
469.542	69.20492
469.752	83.96248
469.962	56.55646
470.172	69.20492
470.382	143.00359
470.592	107.15516
470.802	43.90883
471.012	52.34049
471.222	128.24171
471.432	107.15516
471.642	69.20492
471.852	64.98867
472.062	111.37229
472.272	140.89469
472.482	138.7858
472.691	115.58952
472.901	159.87558
473.111	172.53045
473.321	121.91552
473.531	143.00359
473.741	166.20292
473.95	174.63967
474.16	117.69816
474.37	115.58952
474.58	183.07674
474.79	132.45929
474.999	132.45929
475.209	161.98467
475.419	140.89469
475.628	212.60907
475.838	161.98467
476.048	90.28749
476.258	233.70599
476.467	193.62355
476.677	157.7665
476.886	204.17086
477.096	174.63967
477.306	252.69488
477.515	225.26699
477.725	221.0476
477.935	168.31207
478.144	216.8283
478.354	275.90563
478.563	263.24494
478.773	145.11251
478.982	267.46509
479.192	278.01581
479.401	307.56028
479.611	271.68532
479.82	246.36508
480.03	166.20292
480.239	309.67074
480.449	263.24494
480.658	284.34646
480.868	320.22329
481.077	419.43842
481.287	311.78121
481.496	389.88109
481.705	242.1453
481.915	383.5478
482.124	375.10364
482.333	385.65888
482.543	351.8836
482.752	478.56239
482.961	499.68099
483.171	370.88166
483.38	385.65888
483.589	569.38248
483.799	377.21465
484.008	463.78027
484.217	423.66115
484.426	552.48376
484.636	404.65936
484.845	601.06987
485.054	537.6981
485.263	558.82068
485.472	531.3616
485.682	453.22206
485.891	567.2701
486.1	575.71972
486.309	624.30913
486.518	689.80952
486.727	632.76015
486.936	626.42187
487.146	632.76015
487.355	723.62049
487.564	746.86714
487.773	757.43422
487.982	725.73377
488.191	789.13696
488.4	740.52702
488.609	744.75376
488.818	719.39397
489.027	833.52443
489.236	909.62625
489.445	850.435
489.654	820.84188
489.863	888.48578
490.072	850.435
490.281	928.65334
490.49	911.74035
490.698	1019.56848
490.907	1053.40037
491.116	956.13798
491.325	947.68104
491.534	1070.31686
491.743	1036.48424
491.952	1066.0877
492.16	1091.46294
492.369	1176.05198
492.578	977.28082
492.787	1279.6816
492.996	1102.03617
493.204	1250.07242
493.413	1154.90408
493.622	1233.15312
493.831	1231.03822
494.039	1216.23401
494.248	1097.80687
494.457	1309.29123
494.665	1298.71631
494.874	1408.6973
495.083	1343.13127
495.291	1573.67049
495.5	1476.37892
495.709	1417.15749
495.917	1450.9983
496.126	1431.96284
496.335	1527.13999
496.543	1518.67984
496.752	1484.83912
496.96	1457.34346
497.169	1548.29029
497.377	1605.39541
497.586	1611.74035
497.794	1704.79696
498.003	1740.74914
498.211	1732.28989
498.42	1715.37123
498.628	1588.4755
498.837	1601.16545
499.045	1747.09354
499.254	1734.40471
499.462	1905.69114
499.671	1774.58555
499.879	1907.80559
500.087	1808.42094
500.296	1899.34776
500.504	1740.74914
500.713	1941.63603
500.921	1905.69114
501.129	2036.77582
501.338	1933.17855
501.546	1950.09341
501.754	1899.34776
501.962	1988.15042
502.171	1907.80559
502.379	2191.0833
502.587	2114.99156
502.795	2155.15239
503.004	2091.73927
503.212	2199.53728
503.42	2043.118
503.628	2231.23848
503.837	2021.97715
504.045	2400.27641
504.253	2254.48478
504.461	2205.87767
504.669	2144.58402
504.877	2313.65216
505.085	2273.50366
505.294	2469.98572
505.502	2488.9953
505.71	2383.37545
505.918	2250.25826
506.126	2501.66784
506.334	2398.16383
506.542	2624.14757
506.75	2347.45874
506.958	2406.6141
507.166	2349.57157
507.374	2465.76125
507.582	2442.52587
507.79	2710.70323
507.998	2491.10742
508.206	2662.15024
508.414	2674.81689
508.622	2727.58963
508.83	2562.91268
509.037	2930.15822
509.245	2486.88317
509.453	2839.44029
509.661	2691.70505
509.869	2818.33933
510.077	2600.92174
510.285	2727.58963
510.492	2702.25972
510.7	2822.55963
510.908	2676.92796
511.116	2930.15822
511.324	2736.03251
511.531	2951.25157
511.739	2695.92696
511.947	2879.52823
512.155	2989.21585
512.362	2991.32484
512.57	2919.611
512.778	2932.26763
512.985	2898.51545
513.193	3086.21326
513.401	2930.15822
513.608	2997.6517
513.816	3012.41384
514.024	3048.26164
514.231	3073.56328
514.439	3172.63942
514.646	3124.15976
514.854	3208.46666
515.061	2978.67071
515.269	3294.85378
515.477	2974.45254
515.684	3334.87716
515.892	3048.26164
516.099	3301.17367
516.307	3225.3249
516.514	3334.87716
516.722	3292.74711
516.929	3532.79418
517.136	3267.46581
517.344	3402.27081
517.551	3225.3249
517.759	3395.95342
517.966	3372.7883
518.173	3465.43593
518.381	3410.69376
518.588	3438.06635
518.796	3471.75156
519.003	3726.34312
519.21	3621.17327
519.418	3518.06116
519.625	3435.96088
519.832	3699.00355
520.039	3494.90746
520.247	3911.32402
520.454	3545.42177
520.661	3820.95472
520.868	3797.8311
521.076	3640.10735
521.283	3797.8311
521.49	3881.90551
521.697	3646.41837
521.904	3877.70255
522.112	3886.1084
522.319	3993.25472
522.526	3646.41837
522.733	3957.54514
522.94	3932.33483
523.147	3856.68652
523.354	4052.05761
523.561	4207.38678
523.768	4026.85834
523.975	4054.15741
524.183	3900.81786
524.39	4052.05761
524.597	4161.21984
524.804	4203.19021
525.011	4010.05719
525.218	4159.1211
525.425	4159.1211
525.632	4045.75807
525.838	4249.34782
526.045	4285.00798
526.252	4182.20608
526.459	4542.83313
526.666	4234.66242
526.873	4454.83248
527.08	4459.02387
527.287	4415.00992
527.494	4245.1521
527.701	4599.38433
527.907	4096.14914
528.114	4614.04311
528.321	4331.14723
528.528	4511.4088
528.735	4532.3589
528.941	4670.57382
529.148	4425.49031
529.355	4555.40146
529.562	4563.77991
529.768	4664.29343
529.975	4324.85613
530.182	4670.57382
530.388	4645.45107
530.595	4773.12468
530.802	4563.77991
531.008	4678.94734
531.215	4840.0673
531.422	4863.07344
531.628	4649.63842
531.835	4842.15889
532.042	4611.94906
532.248	5203.65624
532.455	4785.67819
532.661	5007.32143
532.868	4896.53198
533.074	4894.441
533.281	4917.44059
533.487	5101.33709
533.694	4965.52168
533.9	5255.83834
534.107	5080.44877
534.313	5113.86896
534.52	4959.25093
534.726	5097.15961
534.933	5155.63584
535.139	5343.47138
535.345	5312.17861
535.552	5422.72278
535.758	5097.15961
535.965	5381.01574
536.171	5191.13037
536.377	5280.88057
536.584	5257.92532
536.79	5316.35128
536.996	5320.52386
537.203	5460.25107
537.409	5335.12715
537.615	5462.33576
537.821	5372.6732
538.028	5533.20094
538.234	5629.03403
538.44	5470.67425
538.646	5376.84452
538.853	5445.65764
539.059	5554.03847
539.265	5701.91708
539.471	5468.58966
539.677	5847.59645
539.883	5820.55045
540.09	5724.81721
540.296	5651.94325
540.502	5839.27503
540.708	5699.83511
540.914	5976.53019
541.12	5672.76733
541.326	6032.65043
541.532	5839.27503
541.738	6097.06361
541.944	5741.47006
542.15	5976.53019
542.356	5972.37245
542.562	6138.60851
542.768	5901.67648
542.974	6124.06886
543.18	5914.15422
543.386	6178.06745
543.592	6146.91636
543.798	6175.99088
544.004	6178.06745
544.21	6441.60225
544.415	5941.18641
544.621	6381.45819
544.827	5993.1602
545.033	6398.05161
545.239	6051.35336
545.445	6395.97752
545.651	6358.63981
545.856	6387.6809
546.062	6462.33704
546.268	6418.79129
546.474	6337.89337
546.679	6431.23398
546.885	6302.61906
547.091	6433.30768
547.297	6246.58127
547.502	6454.0434
547.708	6398.05161
547.914	6472.70356
548.119	6665.41538
548.325	6735.8194
548.531	6202.98452
548.736	6549.39781
548.942	6539.03558
549.147	6570.12054
549.353	6495.50787
549.559	6754.45132
549.764	6565.97618
549.97	6785.50041
550.175	6799.98822
550.381	7025.44061
550.586	6698.54999
550.792	6994.43099
550.997	6686.1252
551.203	6812.40546
551.408	6561.83173
551.614	6876.54812
551.819	6729.60835
552.025	6988.22846
552.23	6862.0662
552.435	6897.23464
552.641	7091.5776
552.846	7219.65302
553.052	7077.1121
553.257	7287.78747
553.462	7062.64549
553.668	7353.83438
553.873	7008.90278
554.078	7324.94162
554.283	7223.78306
554.489	7380.65954
554.694	7039.91004
554.899	7174.21668
555.105	7157.69171
555.31	7260.94949
555.515	7207.26235
555.72	7669.31441
555.925	7403.35487
556.131	7630.16444
556.336	7157.69171
556.541	7564.21027
556.746	7244.43196
556.951	7438.4243
557.156	7395.10233
557.361	7566.27167
557.567	7368.27915
557.772	7492.0478
557.977	7479.67444
558.182	7522.97779
558.387	7681.67597
558.592	7652.83115
558.797	7529.16321
559.002	7819.66196
559.207	7355.89798
559.412	7786.71863
559.617	7512.66833
559.822	7762.00762
560.027	7520.91595
560.232	7805.24991
560.437	7339.38853
560.642	7801.13199
560.847	7533.28672
561.051	7885.53265
561.256	7871.12525
561.461	8072.73741
561.666	7685.79633
561.871	7722.87569
562.076	7601.31218
562.281	7856.71683
562.485	7858.77524
562.69	8074.79367
562.895	7591.00678
563.1	7782.60034
563.305	7632.22515
563.509	8019.26756
563.714	7694.03678
563.919	7967.8413
564.123	7780.54116
564.328	7974.01312
564.533	7885.53265
564.737	7951.38219
564.942	7947.26721
565.147	8138.52774
565.351	8043.94766
565.556	8130.30507
565.761	7912.28657
565.965	8321.3999
566.17	7936.97941
566.374	7990.47042
566.579	8122.08208
566.784	8105.63515
566.988	8346.0449
567.193	8280.31864
567.397	8078.90613
567.602	8350.15213
567.806	8015.15393
568.011	8452.80768
568.215	8157.02757
568.42	8265.93834
568.624	8220.73685
568.828	8278.26437
569.033	8253.61161
569.237	8343.99126
569.442	8274.15577
569.646	8434.33324
569.85	8294.69797
570.055	8657.97586
570.259	8370.68711
570.463	8376.84722
570.668	8343.99126
570.872	8491.8042
571.076	8228.95602
571.281	8541.05313
571.485	8430.2276
571.689	8737.94079
571.893	8645.67106
572.098	8686.68445
572.302	8512.32592
572.506	8518.48206
572.71	8483.59498
572.914	8746.14074
573.119	8616.95727
573.323	8686.68445
573.527	8516.43003
573.731	8942.85251
573.935	8653.87433
574.139	8770.73883
574.343	8582.08559
574.547	8824.02569
574.751	8893.69009
574.955	8918.27259
575.159	8742.0408
575.364	8805.58163
575.568	8780.98726
575.772	8869.10503
575.976	8946.94892
576.18	8883.44663
576.383	8987.90909
576.587	8963.33384
576.791	8623.11053
576.995	8916.22414
577.199	8912.1272
577.403	8969.47789
