Data from mixed_try1_USB4F045381__41__00145.txt Node

Date: Thu Apr 03 20:06:09 EDT 2025
User: mmckonesweet
Spectrometer: USB4F04538
Trigger mode: 4
Integration Time (sec): 2.700000E-3
Scans to average: 1
Electric dark correction enabled: true
Nonlinearity correction enabled: true
Boxcar width: 0
XAxis mode: Wavelengths
Number of Pixels in Spectrum: 3648
>>>>>Begin Spectral Data<<<<<
345.52	-13.87303
345.736	-13.87303
345.952	-13.87303
346.168	-51.79892
346.384	-32.83698
346.6	-26.51589
346.816	-3.33665
347.032	-58.11912
347.248	-9.65855
347.464	-3.33665
347.68	76.75925
347.896	24.06077
348.112	17.73793
348.328	-22.3017
348.544	24.06077
348.76	-64.43909
348.975	45.13842
349.191	-5.44397
349.407	-5.44397
349.623	-81.29121
349.839	40.92271
350.055	-7.55127
350.27	-9.65855
350.486	-68.65227
350.702	36.70708
350.918	-74.97185
351.133	13.52282
351.349	11.4153
351.565	66.2184
351.781	-15.98024
351.996	34.5993
352.212	34.5993
352.428	-74.97185
352.644	5.09289
352.859	34.5993
353.075	-5.44397
353.291	36.70708
353.506	-53.90568
353.722	43.03055
353.938	-39.15785
354.153	-13.87303
354.369	-30.72997
354.584	2.98547
354.8	-7.55127
355.016	15.63036
355.231	-1.2293
355.447	-13.87303
355.662	17.73793
355.878	15.63036
356.093	24.06077
356.309	59.89417
356.524	0.87808
356.74	17.73793
356.955	15.63036
357.171	34.5993
357.386	0.87808
357.602	32.49155
357.817	-5.44397
358.033	-5.44397
358.248	-22.3017
358.464	30.38382
358.679	-43.37164
358.895	-34.94396
359.11	-15.98024
359.325	-9.65855
359.541	24.06077
359.756	-26.51589
359.972	11.4153
360.187	-24.40881
360.402	26.16843
360.618	-39.15785
360.833	15.63036
361.048	15.63036
361.264	-68.65227
361.479	11.4153
361.694	17.73793
361.909	40.92271
362.125	-1.2293
362.34	19.84552
362.555	-68.65227
362.77	0.87808
362.986	38.81488
363.201	15.63036
363.416	-43.37164
363.631	-13.87303
363.847	11.4153
364.062	0.87808
364.277	-15.98024
364.492	36.70708
364.707	24.06077
364.922	-34.94396
365.138	-1.2293
365.353	30.38382
365.568	2.98547
365.783	-18.08741
365.998	43.03055
366.213	24.06077
366.428	129.47183
366.643	-37.05092
366.858	57.78613
367.073	7.20034
367.288	7.20034
367.503	53.57014
367.718	36.70708
367.933	34.5993
368.148	-43.37164
368.363	62.00222
368.578	-121.30834
368.793	5.09289
369.008	28.27611
369.223	2.98547
369.438	11.4153
369.653	83.08402
369.868	15.63036
370.083	-39.15785
370.298	-7.55127
370.513	-49.69214
370.728	0.87808
370.943	40.92271
371.157	-20.19457
371.372	-47.58533
371.587	17.73793
371.802	7.20034
372.017	74.65103
372.232	-64.43909
372.446	24.06077
372.661	57.78613
372.876	-53.90568
373.091	53.57014
373.306	-24.40881
373.52	11.4153
373.735	-5.44397
373.95	74.65103
374.165	-5.44397
374.379	-13.87303
374.594	15.63036
374.809	-85.50398
375.023	51.46218
375.238	-11.7658
375.453	47.24632
375.667	59.89417
375.882	-9.65855
376.097	11.4153
376.311	11.4153
376.526	93.62577
376.741	87.30066
376.955	9.30781
377.17	-64.43909
377.384	7.20034
377.599	-51.79892
377.813	74.65103
378.028	15.63036
378.242	21.95313
378.457	68.32652
378.672	-30.72997
378.886	13.52282
379.101	15.63036
379.315	36.70708
379.53	-26.51589
379.744	-18.08741
379.958	-1.2293
380.173	43.03055
380.387	-37.05092
380.602	15.63036
380.816	49.35423
381.031	40.92271
381.245	-32.83698
381.459	59.89417
381.674	45.13842
381.888	68.32652
382.103	-7.55127
382.317	-32.83698
382.531	-1.2293
382.746	24.06077
382.96	-1.2293
383.174	-74.97185
383.388	-43.37164
383.603	-13.87303
383.817	53.57014
384.031	32.49155
384.246	-64.43909
384.46	19.84552
384.674	11.4153
384.888	-41.26476
385.103	19.84552
385.317	-13.87303
385.531	34.5993
385.745	-18.08741
385.959	83.08402
386.174	2.98547
386.388	-7.55127
386.602	-43.37164
386.816	9.30781
387.03	36.70708
387.244	-18.08741
387.458	15.63036
387.672	-9.65855
387.887	17.73793
388.101	21.95313
388.315	28.27611
388.529	0.87808
388.743	-18.08741
388.957	28.27611
389.171	7.20034
389.385	45.13842
389.599	-13.87303
389.813	-64.43909
390.027	-1.2293
390.241	57.78613
390.455	-22.3017
390.669	17.73793
390.883	-37.05092
391.097	-3.33665
391.311	5.09289
391.525	43.03055
391.738	53.57014
391.952	-22.3017
392.166	0.87808
392.38	17.73793
392.594	-1.2293
392.808	40.92271
393.022	26.16843
393.236	49.35423
393.449	24.06077
393.663	-49.69214
393.877	-32.83698
394.091	59.89417
394.305	17.73793
394.518	53.57014
394.732	45.13842
394.946	28.27611
395.16	-18.08741
395.373	-20.19457
395.587	53.57014
395.801	-60.2258
396.015	-18.08741
396.228	26.16843
396.442	7.20034
396.656	24.06077
396.869	-5.44397
397.083	15.63036
397.297	28.27611
397.51	-60.2258
397.724	5.09289
397.938	-15.98024
398.151	89.40901
398.365	-7.55127
398.578	15.63036
398.792	0.87808
399.005	-22.3017
399.219	66.2184
399.433	-20.19457
399.646	45.13842
399.86	9.30781
400.073	-51.79892
400.287	-15.98024
400.5	49.35423
400.714	-5.44397
400.927	85.19233
401.141	-13.87303
401.354	9.30781
401.567	17.73793
401.781	68.32652
401.994	2.98547
402.208	-43.37164
402.421	59.89417
402.635	34.5993
402.848	-106.56629
403.061	26.16843
403.275	62.00222
403.488	11.4153
403.701	-26.51589
403.915	-39.15785
404.128	-24.40881
404.341	57.78613
404.555	93.62577
404.768	26.16843
404.981	-22.3017
405.195	5.09289
405.408	19.84552
405.621	53.57014
405.834	-9.65855
406.048	7.20034
406.261	40.92271
406.474	-15.98024
406.687	11.4153
406.9	74.65103
407.114	142.12488
407.327	-9.65855
407.54	-51.79892
407.753	-51.79892
407.966	19.84552
408.179	19.84552
408.392	17.73793
408.605	-9.65855
408.819	13.52282
409.032	7.20034
409.245	-1.2293
409.458	59.89417
409.671	110.49372
409.884	66.2184
410.097	83.08402
410.31	7.20034
410.523	13.52282
410.736	7.20034
410.949	74.65103
411.162	13.52282
411.375	34.5993
411.588	-15.98024
411.801	59.89417
412.014	-7.55127
412.227	19.84552
412.44	2.98547
412.653	80.97574
412.865	26.16843
413.078	66.2184
413.291	24.06077
413.504	66.2184
413.717	-11.7658
413.93	17.73793
414.143	-1.2293
414.356	-7.55127
414.568	-1.2293
414.781	87.30066
414.994	32.49155
415.207	-13.87303
415.42	9.30781
415.632	-39.15785
415.845	-7.55127
416.058	89.40901
416.271	15.63036
416.483	57.78613
416.696	17.73793
416.909	9.30781
417.121	-1.2293
417.334	43.03055
417.547	55.67812
417.759	-9.65855
417.972	91.51738
418.185	68.32652
418.397	57.78613
418.61	-24.40881
418.823	-13.87303
419.035	9.30781
419.248	36.70708
419.46	78.86748
419.673	-13.87303
419.885	85.19233
420.098	-43.37164
420.311	-32.83698
420.523	17.73793
420.736	40.92271
420.948	-39.15785
421.161	-1.2293
421.373	49.35423
421.586	-30.72997
421.798	91.51738
422.01	19.84552
422.223	57.78613
422.435	-13.87303
422.648	17.73793
422.86	57.78613
423.073	59.89417
423.285	-3.33665
423.497	-15.98024
423.71	-72.86535
423.922	34.5993
424.134	30.38382
424.347	-9.65855
424.559	11.4153
424.771	36.70708
424.984	40.92271
425.196	-9.65855
425.408	40.92271
425.621	49.35423
425.833	-18.08741
426.045	70.43467
426.257	34.5993
426.47	45.13842
426.682	74.65103
426.894	-30.72997
427.106	74.65103
427.318	66.2184
427.531	53.57014
427.743	0.87808
427.955	32.49155
428.167	26.16843
428.379	43.03055
428.591	51.46218
428.804	0.87808
429.016	78.86748
429.228	78.86748
429.44	40.92271
429.652	43.03055
429.864	59.89417
430.076	-64.43909
430.288	-15.98024
430.5	-39.15785
430.712	99.95108
430.924	34.5993
431.136	72.54284
431.348	-34.94396
431.56	62.00222
431.772	32.49155
431.984	13.52282
432.196	40.92271
432.408	19.84552
432.62	49.35423
432.832	36.70708
433.044	59.89417
433.256	19.84552
433.468	-3.33665
433.679	59.89417
433.891	11.4153
434.103	40.92271
434.315	32.49155
434.527	19.84552
434.739	68.32652
434.95	26.16843
435.162	66.2184
435.374	45.13842
435.586	99.95108
435.798	24.06077
436.009	51.46218
436.221	87.30066
436.433	9.30781
436.645	118.92822
436.856	40.92271
437.068	24.06077
437.28	57.78613
437.491	108.38515
437.703	26.16843
437.915	9.30781
438.126	32.49155
438.338	57.78613
438.55	0.87808
438.761	66.2184
438.973	72.54284
439.184	26.16843
439.396	87.30066
439.608	74.65103
439.819	15.63036
440.031	68.32652
440.242	-3.33665
440.454	125.25432
440.665	66.2184
440.877	57.78613
441.088	51.46218
441.3	49.35423
441.511	142.12488
441.723	28.27611
441.934	-5.44397
442.146	36.70708
442.357	19.84552
442.569	121.0369
442.78	34.5993
442.991	62.00222
443.203	91.51738
443.414	112.60231
443.626	62.00222
443.837	30.38382
444.048	91.51738
444.26	49.35423
444.471	87.30066
444.682	24.06077
444.894	85.19233
445.105	19.84552
445.316	40.92271
445.528	110.49372
445.739	87.30066
445.95	146.34273
446.161	72.54284
446.373	116.81956
446.584	140.01598
446.795	129.47183
447.006	28.27611
447.217	70.43467
447.429	93.62577
447.64	24.06077
447.851	99.95108
448.062	95.73419
448.273	99.95108
448.484	68.32652
448.695	161.10588
448.907	108.38515
449.118	135.79826
449.329	116.81956
449.54	74.65103
449.751	125.25432
449.962	83.08402
450.173	95.73419
450.384	104.16807
450.595	112.60231
450.806	95.73419
451.017	83.08402
451.228	116.81956
451.439	99.95108
451.65	40.92271
451.861	80.97574
452.072	150.56067
452.283	97.84262
452.494	83.08402
452.705	102.05957
452.915	169.54242
453.126	66.2184
453.337	51.46218
453.548	93.62577
453.759	66.2184
453.97	51.46218
454.181	131.58062
454.391	123.1456
454.602	51.46218
454.813	209.6205
455.024	163.21498
455.235	104.16807
455.445	133.68943
455.656	167.43326
455.867	125.25432
456.078	167.43326
456.288	180.08857
456.499	68.32652
456.71	121.0369
456.921	135.79826
457.131	222.27825
457.342	135.79826
457.553	158.99679
457.763	150.56067
457.974	104.16807
458.184	163.21498
458.395	167.43326
458.606	237.04651
458.816	110.49372
459.027	137.90711
459.237	112.60231
459.448	169.54242
459.659	180.08857
459.869	184.30718
460.08	163.21498
460.29	146.34273
460.501	213.83967
460.711	218.05892
460.922	196.96348
461.132	196.96348
461.343	184.30718
461.553	213.83967
461.764	209.6205
461.974	152.66967
462.184	199.07293
462.395	234.9367
462.605	213.83967
462.816	260.25571
463.026	218.05892
463.236	251.81573
463.447	196.96348
463.657	306.68093
463.867	313.01233
464.078	243.37606
464.288	260.25571
464.498	344.67174
464.709	399.55725
464.919	329.89685
465.129	310.90184
465.339	357.33661
465.55	355.22575
465.76	228.60739
465.97	429.11561
466.18	412.22473
466.391	462.9004
466.601	348.89329
466.811	420.67004
467.021	437.56144
467.231	437.56144
467.441	306.68093
467.651	553.71593
467.862	496.6891
468.072	549.49137
468.282	509.36083
468.492	570.61472
468.702	589.62687
468.912	625.54156
469.122	574.83955
469.332	640.33102
469.542	547.37911
469.752	657.23398
469.962	644.55668
470.172	665.68575
470.382	667.79872
470.592	830.52991
470.802	792.48349
471.012	813.62002
471.222	915.08767
471.432	834.75747
471.642	860.12359
471.852	826.30238
472.062	929.8866
472.272	1008.11532
472.482	929.8866
472.691	1088.46722
472.901	1054.63385
473.111	1137.10491
473.321	1130.76072
473.531	1276.68541
473.741	1092.69648
473.95	1297.83507
474.16	1198.43392
474.37	1354.94013
474.58	1295.7201
474.79	1490.303
474.999	1302.06503
475.209	1386.6656
475.419	1386.6656
475.628	1598.16922
475.838	1477.6127
476.048	1549.52405
476.258	1655.27313
476.467	1847.71793
476.677	1731.40872
476.886	2018.98215
477.096	1815.99851
477.306	1974.58403
477.515	1837.1449
477.725	1968.24121
477.935	1995.72634
478.144	2122.56596
478.354	2042.23714
478.563	2188.08915
478.773	2236.69794
478.982	2331.7883
479.192	2492.33948
479.401	2344.46555
479.611	2416.2965
479.82	2452.20744
480.03	2412.07148
480.239	2661.2706
480.449	2635.93587
480.658	2587.37266
480.868	2728.82089
481.077	2798.468
481.287	2619.04505
481.496	2870.21
481.705	3007.31747
481.915	2973.57375
482.124	3079.00987
482.333	3108.52502
482.543	3015.7528
482.752	3384.54662
482.961	3243.41119
483.171	3234.98278
483.38	3186.51426
483.589	3506.65999
483.799	3525.60317
484.008	3502.45019
484.217	3698.12723
484.426	3618.19276
484.636	3731.77559
484.845	3874.7254
485.054	3803.26186
485.263	3891.53701
485.472	3986.07827
485.682	4028.08338
485.891	4162.4441
486.1	3996.58031
486.309	4177.1346
486.518	4313.4967
486.727	4179.23316
486.936	4361.72619
487.146	4273.64635
487.355	4294.62119
487.564	4202.31591
487.773	4516.82112
487.982	4659.23409
488.191	4671.79498
488.4	4705.28672
488.609	4722.03043
488.818	4663.42114
489.027	4770.16054
489.236	4768.06817
489.445	5090.02287
489.654	4910.29708
489.863	5265.40348
490.072	5161.03005
490.281	5156.8539
490.49	5238.272
490.698	5037.7946
490.907	5209.04907
491.116	5459.38245
491.325	5284.1845
491.534	5632.33174
491.743	5542.75177
491.952	5528.16486
492.16	5800.95695
492.369	5590.67206
492.578	5574.00555
492.787	5852.9705
492.996	5384.31789
493.204	5832.16685
493.413	5861.2913
493.622	5859.21113
493.831	5763.49807
494.039	5998.52999
494.248	5900.80994
494.457	6156.43531
494.665	6337.02888
494.874	6393.03918
495.083	6291.37828
495.291	6214.57673
495.5	6395.1133
495.709	6218.72899
495.917	6320.42997
496.126	6594.12149
496.335	6424.14866
496.543	6755.65888
496.752	6625.19724
496.96	6739.09737
497.169	6446.95896
497.377	6662.4813
497.586	6708.04059
497.794	6757.72897
498.003	6788.77751
498.211	6794.9866
498.42	7001.8393
498.628	7160.96239
498.837	7041.11578
499.045	7053.51719
499.254	7152.69952
499.462	7367.41937
499.671	7039.0488
499.879	7441.69026
500.087	7202.27144
500.296	7427.2509
500.504	7272.47651
500.713	7509.74722
500.921	7452.00343
501.129	7499.43707
501.338	7369.48284
501.546	7579.84201
501.754	7468.50338
501.962	7794.09703
502.171	7746.73334
502.379	7859.97597
502.587	7561.28992
502.795	7824.98043
503.004	7719.95765
503.212	7913.48698
503.42	8032.8077
503.628	8065.71171
503.837	7923.77597
504.045	8141.78245
504.253	7938.17968
504.461	8094.49847
504.669	8106.83445
504.877	8304.11249
505.085	8248.64648
505.294	8478.63509
505.502	8213.71606
505.71	8486.8445
505.918	8156.17113
506.126	8421.16069
506.334	8258.91904
506.542	8667.3749
506.75	8137.67122
506.958	8577.1279
507.166	8415.00183
507.374	8534.04267
507.582	8560.71546
507.79	8837.51626
507.998	8632.51103
508.206	8794.48033
508.414	8767.83502
508.622	8732.98651
508.83	8858.00676
509.037	8833.41794
509.245	8798.57933
509.453	8845.71268
509.661	8941.99909
509.869	8976.81641
510.077	8739.13663
510.285	9046.43581
510.492	9009.581
510.7	9060.76671
510.908	9118.08182
511.116	9257.21984
511.324	9032.10406
511.531	9173.3372
511.739	9216.30503
511.947	9148.7808
512.155	9459.65047
512.362	9439.21021
512.57	9066.90826
512.778	9443.29839
512.985	9400.36925
513.193	9651.71104
513.401	9478.04533
513.608	9478.04533
513.816	9473.9577
514.024	9523.00507
514.231	9328.80467
514.439	9606.77317
514.646	9735.43891
514.854	9878.32999
515.061	9567.95711
515.269	9894.65575
515.477	9631.28567
515.684	9949.74825
515.892	9845.67563
516.099	9917.10213
516.307	10047.66438
516.514	10090.49234
516.722	10114.96267
516.929	10088.45306
517.136	9939.54674
517.344	9868.12591
517.551	10090.49234
517.759	10345.29431
517.966	9945.66769
518.173	10194.47738
518.381	10163.89729
518.588	10280.08523
518.796	10292.31298
519.003	10630.4274
519.21	10208.74702
519.418	10449.19332
519.625	10204.67005
519.832	10504.18503
520.039	10522.51353
520.247	10709.81357
520.454	10646.71326
520.661	10921.42148
520.868	10831.91048
521.076	11106.47732
521.283	10811.56395
521.49	10872.60006
521.697	10789.18141
521.904	10939.72781
522.112	10748.48222
522.319	11019.04476
522.526	10829.87588
522.733	11238.60521
522.94	10929.55774
523.147	11108.5104
523.354	11126.8076
523.561	11246.73471
523.768	11057.68024
523.975	11321.92485
524.183	11374.75289
524.39	11301.60456
524.597	11352.40338
524.804	11141.03816
525.011	11537.25923
525.218	11393.03795
525.425	11709.85648
525.632	11508.82504
525.838	11437.73143
526.045	11521.01135
526.252	11585.99927
526.459	11782.93701
526.666	11799.1756
526.873	11555.53737
527.08	11557.56823
527.287	11809.32444
527.494	11581.9378
527.701	11925.00635
527.907	11983.8518
528.114	12012.25753
528.321	11801.20539
528.528	12046.74812
528.735	12038.63289
528.941	12054.86322
529.148	11908.77192
529.355	12150.20649
529.562	12121.80812
529.768	12176.57508
529.975	12030.51753
530.182	12397.61765
530.388	12125.86512
530.595	12596.28449
530.802	12097.46549
531.008	12563.85328
531.215	12517.2306
531.422	12468.57724
531.628	12600.33828
531.835	12638.84806
532.042	12918.48767
532.248	12604.39205
532.455	12322.59423
532.661	12827.31256
532.868	12511.14913
533.074	12750.31158
533.281	12766.52299
533.487	12877.96674
533.694	12942.79921
533.9	13044.08938
534.107	12954.95471
534.313	13402.56263
534.52	13139.29094
534.726	13181.82445
534.933	13098.78093
535.139	13013.70365
535.345	13058.26901
535.552	13386.36334
535.758	13293.2124
535.965	13297.26262
536.171	13050.1664
536.377	13426.86108
536.584	13380.28854
536.79	13313.46335
536.996	13572.64039
537.203	13358.01397
537.409	13315.48842
537.615	13501.77784
537.821	13232.45698
538.028	13781.15458
538.234	13475.45633
538.44	13779.13033
538.646	13501.77784
538.853	13639.4497
539.059	13669.81635
539.265	13955.22924
539.471	13920.82074
539.677	13821.63892
539.883	14060.47426
540.09	14167.73676
540.296	13807.46953
540.502	14629.10993
540.708	14056.4265
540.914	14289.15901
541.12	14250.70938
541.326	14281.06441
541.532	14248.6857
541.738	14406.52769
541.944	14355.93843
542.15	14544.12581
542.356	14398.43347
542.562	14592.68841
542.768	14463.18652
542.974	14570.43063
543.18	14489.49202
543.386	14588.64155
543.592	14582.57126
543.798	14768.72278
544.004	14546.14926
544.21	14938.68142
544.415	14807.1662
544.621	14780.86284
544.827	14509.72687
545.033	15159.21879
545.239	14997.35679
545.445	15076.26464
545.651	14770.74613
545.856	15349.40669
546.062	15128.86973
546.268	15205.75401
546.474	15094.47411
546.679	14819.30617
546.885	14948.79789
547.091	15072.2181
547.297	15082.33447
547.502	15236.10309
547.708	15003.42664
547.914	15418.19864
548.119	15104.59047
548.325	15612.43804
548.531	15163.26533
548.736	15438.43166
548.942	15353.45326
549.147	15450.57149
549.353	15367.61628
549.559	15541.62091
549.764	15638.74179
549.97	15418.19864
550.175	15460.68804
550.381	15766.21593
550.586	15652.9054
550.792	16041.41335
550.997	15909.88226
551.203	15776.33309
551.408	15721.70072
551.614	15679.20937
551.819	15669.09244
552.025	16037.36615
552.23	16049.50776
552.435	16195.21146
552.641	16094.02747
552.846	16140.5716
553.052	16130.45324
553.257	16197.23518
553.462	16304.49492
553.668	16614.16194
553.873	16304.49492
554.078	16377.35351
554.283	16385.44906
554.489	16685.00784
554.694	16539.27068
554.899	16195.21146
555.105	16399.61635
555.31	16591.89665
555.515	16642.49996
555.72	16982.59299
555.925	16403.66417
556.131	16838.85463
556.336	16383.42517
556.541	16816.58646
556.746	16547.36688
556.951	16765.97809
557.156	16749.78374
557.361	16705.25005
557.567	16703.22582
557.772	17146.59264
557.977	16929.95489
558.182	16765.97809
558.387	16921.85687
558.592	16934.00391
558.797	17033.20824
559.002	17170.89044
559.207	17102.04773
559.412	17014.98656
559.617	17041.30684
559.822	17215.43749
560.027	16976.51927
560.232	17227.58693
560.437	17102.04773
560.642	17199.2384
560.847	17087.87463
561.051	17083.8252
561.256	16998.78969
561.461	17389.58963
561.666	17132.41911
561.871	17440.21946
562.076	17448.32041
562.281	17640.73298
562.485	17215.43749
562.69	17357.18754
562.895	17276.18573
563.1	17770.37492
563.305	17134.44389
563.509	17482.75002
563.714	17393.63994
563.919	17569.84076
564.123	17586.04435
564.328	17669.09099
564.533	17452.3709
564.737	17592.12074
564.942	17456.42141
565.147	17833.1752
565.351	17505.02848
565.556	17458.44667
565.761	17681.24462
565.965	17831.14934
566.17	17748.09174
566.374	17920.29074
566.579	17952.70747
566.784	17825.07176
566.988	17863.56362
567.193	17940.55109
567.397	17766.3234
567.602	18212.07422
567.806	17654.9119
568.011	18041.85815
568.215	18047.93685
568.42	18439.06956
568.624	18195.86206
568.828	18244.49926
569.033	17999.3081
569.237	18530.28642
569.442	18256.65889
569.646	18157.35911
569.85	18139.12133
570.055	18666.11269
570.259	18672.19487
570.463	18607.32007
570.668	18268.81866
570.872	18522.17794
571.076	18177.62365
571.281	18524.20506
571.485	18475.55537
571.689	18507.98825
571.893	18372.1821
572.098	18449.20438
572.302	18475.55537
572.506	18597.18374
572.71	18605.2928
572.914	18899.28846
573.119	18585.02028
573.323	18781.68021
