Data from mixed_try1_USB4F045381__13__00117.txt Node

Date: Thu Apr 03 20:00:04 EDT 2025
User: mmckonesweet
Spectrometer: USB4F04538
Trigger mode: 4
Integration Time (sec): 2.700000E-3
Scans to average: 1
Electric dark correction enabled: true
Nonlinearity correction enabled: true
Boxcar width: 0
XAxis mode: Wavelengths
Number of Pixels in Spectrum: 3648
>>>>>Begin Spectral Data<<<<<
345.52	50.05688
345.736	50.05688
345.952	50.05688
346.168	-13.17063
346.384	-30.02763
346.6	24.76332
346.816	-72.16318
347.032	7.90283
347.248	28.97868
347.464	52.16483
347.68	-13.17063
347.896	-25.81353
348.112	20.54805
348.328	-36.3486
348.544	-21.59933
348.76	-19.49219
348.975	54.2728
349.191	-17.38502
349.407	35.30189
349.623	-34.24164
349.839	39.51749
350.055	28.97868
350.27	79.57023
350.486	-13.17063
350.702	39.51749
350.918	-15.27784
351.133	-8.95613
351.349	-21.59933
351.565	-57.41689
351.781	-25.81353
351.996	-38.45555
352.212	24.76332
352.428	-36.3486
352.644	22.65567
352.859	-34.24164
353.075	104.87091
353.291	-44.77622
353.506	16.33288
353.722	-17.38502
353.938	20.54805
354.153	58.48881
354.369	-17.38502
354.584	37.40968
354.8	50.05688
355.016	-44.77622
355.231	-25.81353
355.447	-2.6342
355.662	-44.77622
355.878	79.57023
356.093	12.11781
356.309	-13.17063
356.524	-40.56246
356.74	33.19413
356.955	31.08639
357.171	-46.88306
357.386	73.24557
357.602	-4.74153
357.817	-46.88306
358.033	31.08639
358.248	24.76332
358.464	-4.74153
358.679	-4.74153
358.895	12.11781
359.11	-13.17063
359.325	-2.6342
359.541	-59.52357
359.756	-4.74153
359.972	-21.59933
360.187	-6.84884
360.402	12.11781
360.618	10.01031
360.833	-38.45555
361.048	-27.92059
361.264	56.38079
361.479	-36.3486
361.694	-25.81353
361.909	-13.17063
362.125	102.7624
362.34	-0.52684
362.555	35.30189
362.77	-13.17063
362.986	18.44046
363.201	22.65567
363.416	-13.17063
363.631	-78.48264
363.847	-6.84884
364.062	24.76332
364.277	-13.17063
364.492	-38.45555
364.707	43.73317
364.922	20.54805
365.138	33.19413
365.353	-4.74153
365.568	28.97868
365.783	39.51749
365.998	-36.3486
366.213	58.48881
366.428	-44.77622
366.643	-17.38502
366.858	-93.22713
367.073	41.62532
367.288	71.13739
367.503	-21.59933
367.718	-36.3486
367.933	12.11781
368.148	3.68794
368.363	66.92111
368.578	-93.22713
368.793	-21.59933
369.008	3.68794
369.223	-13.17063
369.438	3.68794
369.653	-30.02763
369.868	3.68794
370.083	28.97868
370.298	-15.27784
370.513	-6.84884
370.728	-2.6342
370.943	-89.01455
371.157	-0.52684
371.372	-13.17063
371.587	26.87099
371.802	-103.75813
372.017	20.54805
372.232	-23.70644
372.446	-15.27784
372.661	-38.45555
372.876	-67.95008
373.091	-25.81353
373.306	60.59685
373.52	-27.92059
373.735	-59.52357
373.95	-11.06339
374.165	-11.06339
374.379	-51.09666
374.594	-34.24164
374.809	-65.84349
375.023	-38.45555
375.238	64.813
375.453	-42.66935
375.667	71.13739
375.882	-30.02763
376.097	-30.02763
376.311	20.54805
376.526	-21.59933
376.741	-0.52684
376.955	24.76332
377.17	35.30189
377.384	64.813
377.599	-42.66935
377.813	-107.97035
378.028	28.97868
378.242	-4.74153
378.457	45.84105
378.672	104.87091
378.886	-0.52684
379.101	-30.02763
379.315	-80.58907
379.53	24.76332
379.744	14.22533
379.958	-0.52684
380.173	-61.63024
380.387	-44.77622
380.602	66.92111
380.816	-32.13465
381.031	-30.02763
381.245	24.76332
381.459	-21.59933
381.674	-8.95613
381.888	-27.92059
382.103	20.54805
382.317	-61.63024
382.531	31.08639
382.746	-11.06339
382.96	56.38079
383.174	58.48881
383.388	-25.81353
383.603	41.62532
383.817	-38.45555
384.031	16.33288
384.246	47.94895
384.46	-8.95613
384.674	10.01031
384.888	22.65567
385.103	-6.84884
385.317	3.68794
385.531	64.813
385.745	-61.63024
385.959	-27.92059
386.174	73.24557
386.388	33.19413
386.602	-15.27784
386.816	28.97868
387.03	10.01031
387.244	-30.02763
387.458	-36.3486
387.672	3.68794
387.887	47.94895
388.101	-4.74153
388.315	3.68794
388.529	-44.77622
388.743	-30.02763
388.957	-51.09666
389.171	-4.74153
389.385	7.90283
389.599	33.19413
389.813	-46.88306
390.027	24.76332
390.241	14.22533
390.455	-27.92059
390.669	12.11781
390.883	24.76332
391.097	-42.66935
391.311	-2.6342
391.525	-25.81353
391.738	-70.05664
391.952	39.51749
392.166	12.11781
392.38	20.54805
392.594	20.54805
392.808	12.11781
393.022	-4.74153
393.236	-32.13465
393.449	5.79537
393.663	-78.48264
393.877	106.97945
394.091	-8.95613
394.305	7.90283
394.518	-13.17063
394.732	14.22533
394.946	-17.38502
395.16	83.78679
395.373	28.97868
395.587	-63.73688
395.801	-46.88306
396.015	-4.74153
396.228	-4.74153
396.442	-38.45555
396.656	-0.52684
396.869	-0.52684
397.083	-38.45555
397.297	47.94895
397.51	22.65567
397.724	-2.6342
397.938	20.54805
398.151	56.38079
398.365	58.48881
398.578	62.70491
398.792	31.08639
399.005	-42.66935
399.219	39.51749
399.433	50.05688
399.646	-97.43961
399.86	-61.63024
400.073	37.40968
400.287	-59.52357
400.5	28.97868
400.714	-59.52357
400.927	-19.49219
401.141	-72.16318
401.354	-40.56246
401.567	-25.81353
401.781	12.11781
401.994	-21.59933
402.208	-21.59933
402.421	20.54805
402.635	39.51749
402.848	-91.12085
403.061	62.70491
403.275	-11.06339
403.488	12.11781
403.701	28.97868
403.915	31.08639
404.128	-80.58907
404.341	-11.06339
404.555	39.51749
404.768	73.24557
404.981	12.11781
405.195	24.76332
405.408	56.38079
405.621	-61.63024
405.834	-11.06339
406.048	20.54805
406.261	-53.20343
406.474	-21.59933
406.687	28.97868
406.9	50.05688
407.114	-42.66935
407.327	31.08639
407.54	-17.38502
407.753	-30.02763
407.966	16.33288
408.179	-13.17063
408.392	-17.38502
408.605	35.30189
408.819	-27.92059
409.032	83.78679
409.245	69.02924
409.458	37.40968
409.671	-80.58907
409.884	52.16483
410.097	-30.02763
410.31	-44.77622
410.523	37.40968
410.736	43.73317
410.949	-11.06339
411.162	-51.09666
411.375	16.33288
411.588	-48.98987
411.801	3.68794
412.014	-42.66935
412.227	-15.27784
412.44	-36.3486
412.653	37.40968
412.865	3.68794
413.078	-19.49219
413.291	-8.95613
413.504	-13.17063
413.717	3.68794
413.93	-40.56246
414.143	28.97868
414.356	3.68794
414.568	-40.56246
414.781	-30.02763
414.994	20.54805
415.207	-55.31017
415.42	12.11781
415.632	-4.74153
415.845	28.97868
416.058	-4.74153
416.271	5.79537
416.483	-4.74153
416.696	-2.6342
416.909	18.44046
417.121	56.38079
417.334	3.68794
417.547	1.58054
417.759	-8.95613
417.972	-0.52684
418.185	-8.95613
418.397	31.08639
418.61	3.68794
418.823	-13.17063
419.035	45.84105
419.248	16.33288
419.46	12.11781
419.673	20.54805
419.885	71.13739
420.098	73.24557
420.311	1.58054
420.523	-17.38502
420.736	-44.77622
420.948	28.97868
421.161	-44.77622
421.373	26.87099
421.586	31.08639
421.798	-46.88306
422.01	-2.6342
422.223	7.90283
422.435	24.76332
422.648	24.76332
422.86	-13.17063
423.073	64.813
423.285	20.54805
423.497	-44.77622
423.71	45.84105
423.922	28.97868
424.134	-8.95613
424.347	22.65567
424.559	45.84105
424.771	37.40968
424.984	12.11781
425.196	-48.98987
425.408	-21.59933
425.621	-19.49219
425.833	50.05688
426.045	-4.74153
426.257	26.87099
426.47	3.68794
426.682	-36.3486
426.894	24.76332
427.106	62.70491
427.318	47.94895
427.531	-76.37618
427.743	3.68794
427.955	69.02924
428.167	-19.49219
428.379	28.97868
428.591	98.54544
428.804	-8.95613
429.016	20.54805
429.228	-57.41689
429.44	-11.06339
429.652	-13.17063
429.864	45.84105
430.076	-2.6342
430.288	-13.17063
430.5	-51.09666
430.712	-4.74153
430.924	7.90283
431.136	22.65567
431.348	12.11781
431.56	-53.20343
431.772	-32.13465
431.984	-2.6342
432.196	-25.81353
432.408	14.22533
432.62	60.59685
432.832	-48.98987
433.044	-30.02763
433.256	-2.6342
433.468	56.38079
433.679	-4.74153
433.891	-38.45555
434.103	24.76332
434.315	79.57023
434.527	22.65567
434.739	45.84105
434.95	-72.16318
435.162	10.01031
435.374	31.08639
435.586	7.90283
435.798	-2.6342
436.009	16.33288
436.221	52.16483
436.433	106.97945
436.645	79.57023
436.856	-80.58907
437.068	3.68794
437.28	50.05688
437.491	12.11781
437.703	5.79537
437.915	-19.49219
438.126	18.44046
438.338	-11.06339
438.55	-11.06339
438.761	22.65567
438.973	16.33288
439.184	3.68794
439.396	28.97868
439.608	-4.74153
439.819	50.05688
440.031	-40.56246
440.242	45.84105
440.454	-38.45555
440.665	-23.70644
440.877	12.11781
441.088	3.68794
441.3	-4.74153
441.511	-13.17063
441.723	5.79537
441.934	5.79537
442.146	-46.88306
442.357	-57.41689
442.569	28.97868
442.78	31.08639
442.991	7.90283
443.203	-36.3486
443.414	39.51749
443.626	-19.49219
443.837	-8.95613
444.048	54.2728
444.26	50.05688
444.471	-30.02763
444.682	54.2728
444.894	-42.66935
445.105	-4.74153
445.316	75.35377
445.528	-8.95613
445.739	5.79537
445.95	-36.3486
446.161	-8.95613
446.373	28.97868
446.584	33.19413
446.795	3.68794
447.006	14.22533
447.217	3.68794
447.429	-11.06339
447.64	3.68794
447.851	-19.49219
448.062	-38.45555
448.273	-21.59933
448.484	33.19413
448.695	-86.90822
448.907	-11.06339
449.118	1.58054
449.329	-0.52684
449.54	28.97868
449.751	-4.74153
449.962	16.33288
450.173	39.51749
450.384	-36.3486
450.595	-4.74153
450.806	-15.27784
451.017	96.437
451.228	-11.06339
451.439	3.68794
451.65	37.40968
451.861	31.08639
452.072	-55.31017
452.283	33.19413
452.494	28.97868
452.705	10.01031
452.915	5.79537
453.126	-19.49219
453.337	-53.20343
453.548	79.57023
453.759	22.65567
453.97	-11.06339
454.181	5.79537
454.391	3.68794
454.602	58.48881
454.813	-13.17063
455.024	50.05688
455.235	22.65567
455.445	14.22533
455.656	-72.16318
455.867	-27.92059
456.078	31.08639
456.288	-4.74153
456.499	50.05688
456.71	24.76332
456.921	39.51749
457.131	-34.24164
457.342	-19.49219
457.553	28.97868
457.763	-95.33338
457.974	-25.81353
458.184	47.94895
458.395	24.76332
458.606	-2.6342
458.816	-0.52684
459.027	16.33288
459.237	-89.01455
459.448	45.84105
459.659	56.38079
459.869	-11.06339
460.08	22.65567
460.29	-34.24164
460.501	14.22533
460.711	39.51749
460.922	-8.95613
461.132	-13.17063
461.343	39.51749
461.553	81.6785
461.764	-17.38502
461.974	-27.92059
462.184	-13.17063
462.395	-11.06339
462.605	-51.09666
462.816	-51.09666
463.026	5.79537
463.236	62.70491
463.447	-38.45555
463.657	58.48881
463.867	69.02924
464.078	3.68794
464.288	1.58054
464.498	26.87099
464.709	-82.69548
464.919	47.94895
465.129	-21.59933
465.339	-4.74153
465.55	62.70491
465.76	-6.84884
465.97	-11.06339
466.18	-19.49219
466.391	62.70491
466.601	39.51749
466.811	54.2728
467.021	39.51749
467.231	20.54805
467.441	3.68794
467.651	-15.27784
467.862	-63.73688
468.072	-17.38502
468.282	71.13739
468.492	3.68794
468.702	-19.49219
468.912	7.90283
469.122	12.11781
469.332	-36.3486
469.542	41.62532
469.752	5.79537
469.962	39.51749
470.172	-32.13465
470.382	88.00344
470.592	12.11781
470.802	56.38079
471.012	16.33288
471.222	-2.6342
471.432	-4.74153
471.642	58.48881
471.852	12.11781
472.062	20.54805
472.272	-63.73688
472.482	54.2728
472.691	28.97868
472.901	-48.98987
473.111	66.92111
473.321	12.11781
473.531	3.68794
473.741	24.76332
473.95	62.70491
474.16	69.02924
474.37	-0.52684
474.58	5.79537
474.79	45.84105
474.999	12.11781
475.209	37.40968
475.419	37.40968
475.628	47.94895
475.838	-4.74153
476.048	5.79537
476.258	45.84105
476.467	-8.95613
476.677	-36.3486
476.886	-42.66935
477.096	79.57023
477.306	-36.3486
477.515	20.54805
477.725	35.30189
477.935	26.87099
478.144	-27.92059
478.354	-2.6342
478.563	22.65567
478.773	-11.06339
478.982	-4.74153
479.192	26.87099
479.401	14.22533
479.611	20.54805
479.82	-4.74153
480.03	-17.38502
480.239	39.51749
480.449	22.65567
480.658	-2.6342
480.868	12.11781
481.077	7.90283
481.287	104.87091
481.496	28.97868
481.705	14.22533
481.915	-57.41689
482.124	-25.81353
482.333	5.79537
482.543	20.54805
482.752	35.30189
482.961	33.19413
483.171	28.97868
483.38	75.35377
483.589	-21.59933
483.799	50.05688
484.008	54.2728
484.217	56.38079
484.426	47.94895
484.636	-36.3486
484.845	28.97868
485.054	16.33288
485.263	52.16483
485.472	75.35377
485.682	88.00344
485.891	-34.24164
486.1	50.05688
486.309	115.4138
486.518	45.84105
486.727	50.05688
486.936	-42.66935
487.146	79.57023
487.355	14.22533
487.564	109.088
487.773	-25.81353
487.982	-13.17063
488.191	-17.38502
488.4	71.13739
488.609	56.38079
488.818	96.437
489.027	-13.17063
489.236	31.08639
489.445	50.05688
489.654	12.11781
489.863	-36.3486
490.072	5.79537
490.281	3.68794
490.49	3.68794
490.698	64.813
490.907	35.30189
491.116	117.52244
491.325	45.84105
491.534	-30.02763
491.743	39.51749
491.952	-19.49219
492.16	96.437
492.369	-38.45555
492.578	39.51749
492.787	12.11781
492.996	12.11781
493.204	62.70491
493.413	45.84105
493.622	37.40968
493.831	79.57023
494.039	31.08639
494.248	31.08639
494.457	115.4138
494.665	-34.24164
494.874	24.76332
495.083	12.11781
495.291	39.51749
495.5	54.2728
495.709	28.97868
495.917	37.40968
496.126	5.79537
496.335	62.70491
496.543	35.30189
496.752	-17.38502
496.96	47.94895
497.169	-13.17063
497.377	33.19413
497.586	22.65567
497.794	-0.52684
498.003	41.62532
498.211	28.97868
498.42	50.05688
498.628	83.78679
498.837	37.40968
499.045	90.11179
499.254	138.61006
499.462	43.73317
499.671	125.95723
499.879	41.62532
500.087	71.13739
500.296	12.11781
500.504	73.24557
500.713	22.65567
500.921	62.70491
501.129	62.70491
501.338	102.7624
501.546	79.57023
501.754	73.24557
501.962	41.62532
502.171	88.00344
502.379	22.65567
502.587	106.97945
502.795	62.70491
503.004	121.73979
503.212	33.19413
503.42	168.13631
503.628	71.13739
503.837	79.57023
504.045	106.97945
504.253	62.70491
504.461	64.813
504.669	62.70491
504.877	39.51749
505.085	100.65391
505.294	73.24557
505.502	71.13739
505.71	115.4138
505.918	64.813
506.126	73.24557
506.334	12.11781
506.542	-2.6342
506.75	121.73979
506.958	45.84105
507.166	147.04571
507.374	98.54544
507.582	98.54544
507.79	54.2728
507.998	155.4817
508.206	79.57023
508.414	163.91802
508.622	96.437
508.83	115.4138
509.037	33.19413
509.245	90.11179
509.453	28.97868
509.661	128.06598
509.869	151.26366
510.077	88.00344
510.285	56.38079
510.492	69.02924
510.7	106.97945
510.908	71.13739
511.116	176.57313
511.324	106.97945
511.531	159.69982
511.739	62.70491
511.947	115.4138
512.155	163.91802
512.362	102.7624
512.57	102.7624
512.778	81.6785
512.985	45.84105
513.193	151.26366
513.401	100.65391
513.608	115.4138
513.816	117.52244
514.024	172.35468
514.231	106.97945
514.439	109.088
514.646	54.2728
514.854	18.44046
515.061	125.95723
515.269	147.04571
515.477	138.61006
515.684	144.93677
515.892	155.4817
516.099	121.73979
516.307	113.30518
516.514	121.73979
516.722	147.04571
516.929	189.22898
517.136	172.35468
517.344	125.95723
517.551	125.95723
517.759	106.97945
517.966	182.90097
518.173	113.30518
518.381	104.87091
518.588	88.00344
518.796	92.22017
519.003	56.38079
519.21	102.7624
519.418	189.22898
519.625	163.91802
519.832	206.10459
520.039	159.69982
520.247	159.69982
520.454	168.13631
520.661	210.32369
520.868	138.61006
521.076	235.63997
521.283	151.26366
521.49	142.82785
521.697	237.74979
521.904	185.01029
522.112	151.26366
522.319	225.09118
522.526	176.57313
522.733	180.79167
522.94	225.09118
523.147	189.22898
523.354	265.17916
523.561	231.42039
523.768	168.13631
523.975	216.6525
524.183	180.79167
524.39	176.57313
524.597	214.54287
524.804	212.43327
525.011	210.32369
525.218	195.55718
525.425	235.63997
525.632	216.6525
525.838	189.22898
526.045	225.09118
526.252	172.35468
526.459	218.76214
526.666	157.59075
526.873	227.2009
527.08	210.32369
527.287	360.15111
527.494	256.73901
527.701	328.48976
527.907	201.88557
528.114	298.94277
528.321	250.4091
528.528	301.05315
528.735	282.06037
528.941	271.50948
529.148	216.6525
529.355	286.28086
529.562	163.91802
529.768	216.6525
529.975	301.05315
530.182	256.73901
530.388	263.0691
530.595	250.4091
530.802	282.06037
531.008	273.61962
531.215	277.83996
531.422	389.70517
531.628	307.38441
531.835	341.15383
532.042	227.2009
532.248	303.16355
532.455	239.85962
532.661	379.14977
532.868	250.4091
533.074	372.81673
533.281	315.82634
533.487	244.07936
533.694	349.59689
533.9	402.37219
534.107	303.16355
534.313	404.48342
534.52	341.15383
534.726	412.9285
534.933	396.03861
535.139	320.04741
535.345	366.48384
535.552	349.59689
535.758	400.26098
535.965	385.48296
536.171	385.48296
536.377	417.15113
536.584	436.15378
536.79	507.95283
536.996	421.37383
537.203	370.70575
537.409	328.48976
537.615	400.26098
537.821	383.37188
538.028	444.59982
538.234	400.26098
538.44	419.26247
538.646	436.15378
538.853	417.15113
539.059	332.71105
539.265	389.70517
539.471	353.81853
539.677	455.15771
539.883	488.94552
540.09	522.73711
540.296	438.26527
540.502	459.38097
540.708	499.50499
540.914	531.18558
541.12	402.37219
541.326	605.11903
541.532	501.61693
541.738	476.27464
541.944	478.38641
542.15	567.09406
542.356	486.83367
542.562	543.85871
542.768	501.61693
542.974	484.72183
543.18	484.72183
543.386	653.71246
543.592	569.20645
543.798	558.64466
544.004	571.31885
544.21	573.43126
544.415	552.30774
544.621	586.10602
544.827	596.66867
545.033	653.71246
545.239	493.16926
545.445	655.82537
545.651	577.65613
545.856	689.63343
546.062	611.45693
546.268	657.93829
546.474	562.86933
546.679	679.06809
546.885	552.30774
547.091	603.00642
547.297	598.78124
547.502	647.37382
547.708	554.42003
547.914	649.48669
548.119	624.13307
548.325	670.61603
548.531	702.31221
548.736	734.01088
548.942	655.82537
549.147	664.2771
549.353	723.44439
549.559	763.59846
549.764	750.91783
549.97	731.89756
550.175	687.52034
550.381	816.43829
550.586	666.39007
550.792	894.65167
550.997	772.05243
551.203	818.55201
551.408	586.10602
551.614	679.06809
551.819	795.30164
552.025	763.59846
552.23	772.05243
552.435	884.08162
552.641	839.68967
552.846	801.64253
553.052	909.45008
553.257	892.53765
553.462	858.71433
553.668	854.48657
553.873	791.07442
554.078	913.67827
554.283	767.82543
554.489	945.39064
554.694	943.27643
554.899	898.87975
555.105	841.80349
555.31	966.53312
555.515	877.73969
555.72	1120.89207
555.925	989.79065
556.131	1032.07905
556.336	943.27643
556.541	1027.8501
556.746	945.39064
556.951	1036.30803
557.156	917.90649
557.361	1068.02606
557.567	983.44761
557.772	1074.36982
557.977	903.10786
558.182	1057.45324
558.387	1070.14064
558.592	1163.18696
558.797	1084.94284
559.002	1241.4365
559.207	1042.65153
559.412	1087.05747
559.617	1101.85995
559.822	1101.85995
560.027	1053.22416
560.232	1239.32159
560.437	1051.10962
560.642	1142.0393
560.847	1097.63065
561.051	1254.12602
561.256	1034.19354
561.461	1144.15405
561.666	1131.46563
561.871	1285.85024
562.076	1186.44984
562.281	1304.88501
562.485	1089.17209
562.69	1161.07218
562.895	1087.05747
563.1	1245.66633
563.305	1078.59901
563.509	1207.59829
563.714	1197.02402
563.919	1197.02402
564.123	1271.04553
564.328	1209.71316
564.533	1283.73527
564.737	1391.60069
564.942	1268.93059
565.147	1385.25557
565.351	1161.07218
565.556	1311.22997
565.761	1321.80494
565.965	1298.54007
566.17	1381.0255
566.374	1368.33529
566.579	1188.56467
566.784	1300.65505
566.988	1224.5173
567.193	1389.48565
567.397	1340.84
567.602	1516.38855
567.806	1400.06086
568.011	1488.89297
568.215	1368.33529
568.42	1444.47689
568.624	1345.07003
568.828	1461.39731
569.033	1345.07003
569.237	1400.06086
569.442	1287.9652
569.646	1317.57495
569.85	1491.00802
570.055	1522.73366
570.259	1385.25557
570.463	1535.42387
570.668	1395.83077
570.872	1662.32288
571.076	1412.75114
571.281	1452.9371
571.485	1524.8487
571.689	1641.17355
571.893	1436.01668
572.098	1556.57412
572.302	1431.78658
572.506	1577.72425
572.71	1567.1492
572.914	1653.86318
573.119	1567.1492
573.323	1677.12726
573.527	1429.67153
573.731	1820.93271
573.935	1655.97811
574.139	1655.97811
574.343	1554.4591
574.547	1620.02399
574.751	1626.36888
574.955	1941.45983
575.159	1672.89745
575.364	1801.90066
575.568	1552.34408
575.772	1753.26167
575.976	1600.9892
576.18	1702.50586
576.383	1713.08015
576.587	1814.58873
576.791	1710.9653
576.995	1791.32715
577.199	1829.39128
577.403	1820.93271
577.607	1721.53952
577.811	1958.3745
578.015	1808.24471
578.219	1924.54479
578.422	1833.62054
578.626	1994.31687
578.83	1679.24216
579.034	1964.7174
579.238	1784.98299
579.442	2011.2303
579.645	1867.45392
579.849	2017.57273
580.053	1871.683
580.257	1990.08845
580.46	1852.65197
580.664	1987.97423
580.868	1935.11673
581.071	2023.91509
581.275	1867.45392
581.479	1949.91721
581.682	1956.26019
581.886	2026.0292
582.09	2083.10751
