Data from mixed_try1_USB4F045381__22__00126.txt Node

Date: Thu Apr 03 20:01:15 EDT 2025
User: mmckonesweet
Spectrometer: USB4F04538
Trigger mode: 4
Integration Time (sec): 2.700000E-3
Scans to average: 1
Electric dark correction enabled: true
Nonlinearity correction enabled: true
Boxcar width: 0
XAxis mode: Wavelengths
Number of Pixels in Spectrum: 3648
>>>>>Begin Spectral Data<<<<<
345.52	22.12877
345.736	22.12877
345.952	22.12877
346.168	-55.83685
346.384	-30.55439
346.6	47.42198
346.816	11.59093
347.032	-9.48295
347.248	70.61035
347.464	-53.73012
347.68	-47.40976
347.896	-22.12611
348.112	-11.5902
348.328	20.02115
348.544	34.77495
348.76	-3.16104
348.975	-36.87534
349.191	-55.83685
349.407	36.88273
349.623	-45.30293
349.839	-20.01897
350.055	20.02115
350.27	34.77495
350.486	7.37596
350.702	-28.44736
350.918	7.37596
351.133	28.45175
351.349	-36.87534
351.565	62.17789
351.781	20.02115
351.996	41.09836
352.212	13.69845
352.428	22.12877
352.644	-28.44736
352.859	-20.01897
353.075	13.69845
353.291	17.91356
353.506	-47.40976
353.722	-47.40976
353.938	-1.05368
354.153	87.47635
354.369	-11.5902
354.584	22.12877
354.8	-22.12611
355.016	-13.69743
355.231	-72.68981
355.447	-7.37567
355.662	34.77495
355.878	20.02115
356.093	30.55946
356.309	-5.26836
356.524	-1.05368
356.74	-1.05368
356.955	-60.05024
357.171	36.88273
357.386	26.34407
357.602	28.45175
357.817	-28.44736
358.033	3.16109
358.248	-28.44736
358.464	36.88273
358.679	-47.40976
358.895	1.05369
359.11	-41.08919
359.325	-30.55439
359.541	-5.26836
359.756	-20.01897
359.972	-34.76838
360.187	-22.12611
360.402	17.91356
360.618	22.12877
360.833	-28.44736
361.048	-64.26353
361.264	-24.23321
361.479	-22.12611
361.694	5.26851
361.909	-13.69743
362.125	7.37596
362.34	3.16109
362.555	28.45175
362.77	-5.26836
362.986	-22.12611
363.201	28.45175
363.416	-17.91182
363.631	5.26851
363.847	3.16109
364.062	119.10394
364.277	38.99053
364.492	15.80599
364.707	-5.26836
364.922	11.59093
365.138	-64.26353
365.353	22.12877
365.568	-5.26836
365.783	49.5299
365.998	68.5022
366.213	-20.01897
366.428	36.88273
366.643	-28.44736
366.858	-41.08919
367.073	-24.23321
367.288	-26.3403
367.503	-20.01897
367.718	49.5299
367.933	-28.44736
368.148	15.80599
368.363	20.02115
368.578	17.91356
368.793	-47.40976
369.008	106.45231
369.223	24.2364
369.438	-43.19607
369.653	15.80599
369.868	-64.26353
370.083	45.31408
370.298	22.12877
370.513	-15.80464
370.728	-1.05368
370.943	-26.3403
371.157	-9.48295
371.372	-66.37014
371.587	-9.48295
371.802	-64.26353
372.017	87.47635
372.232	-28.44736
372.446	-20.01897
372.661	36.88273
372.876	-45.30293
373.091	13.69845
373.306	13.69845
373.52	-43.19607
373.735	-26.3403
373.95	70.61035
374.165	11.59093
374.379	49.5299
374.594	-30.55439
374.809	-3.16104
375.023	-64.26353
375.238	41.09836
375.453	-3.16104
375.667	-13.69743
375.882	53.7458
376.097	24.2364
376.311	3.16109
376.526	-3.16104
376.741	-41.08919
376.955	3.16109
377.17	26.34407
377.384	-38.98228
377.599	15.80599
377.813	-62.1569
378.028	5.26851
378.242	28.45175
378.457	22.12877
378.672	5.26851
378.886	-79.00925
379.101	-55.83685
379.315	-3.16104
379.53	64.28597
379.744	32.66719
379.958	5.26851
380.173	-64.26353
380.387	53.7458
380.602	53.7458
380.816	-30.55439
381.031	-74.79631
381.245	11.59093
381.459	-11.5902
381.674	7.37596
381.888	-26.3403
382.103	30.55946
382.317	-57.94356
382.531	-43.19607
382.746	-28.44736
382.96	24.2364
383.174	-28.44736
383.388	30.55946
383.603	55.85379
383.817	38.99053
384.031	-1.05368
384.246	11.59093
384.46	-13.69743
384.674	5.26851
384.888	-20.01897
385.103	26.34407
385.317	13.69845
385.531	13.69845
385.745	28.45175
385.959	49.5299
386.174	-3.16104
386.388	83.25972
386.602	70.61035
386.816	-38.98228
387.03	-3.16104
387.244	22.12877
387.458	-7.37567
387.672	83.25972
387.887	20.02115
388.101	-28.44736
388.315	1.05369
388.529	-22.12611
388.743	-30.55439
388.957	22.12877
389.171	-17.91182
389.385	-13.69743
389.599	-11.5902
389.813	15.80599
390.027	15.80599
390.241	3.16109
390.455	3.16109
390.669	20.02115
390.883	57.9618
391.097	15.80599
391.311	9.48343
391.525	11.59093
391.738	43.20621
391.952	20.02115
392.166	-45.30293
392.38	5.26851
392.594	79.04317
392.808	-9.48295
393.022	47.42198
393.236	-17.91182
393.449	-47.40976
393.663	-5.26836
393.877	-26.3403
394.091	-5.26836
394.305	26.34407
394.518	20.02115
394.732	32.66719
394.946	3.16109
395.16	-22.12611
395.373	20.02115
395.587	-5.26836
395.801	-13.69743
396.015	-47.40976
396.228	-32.6614
396.442	13.69845
396.656	45.31408
396.869	-43.19607
397.083	-30.55439
397.297	49.5299
397.51	70.61035
397.724	38.99053
397.938	-38.98228
398.151	7.37596
398.365	20.02115
398.578	57.9618
398.792	53.7458
399.005	64.28597
399.219	-47.40976
399.433	112.77803
399.646	13.69845
399.86	-28.44736
400.073	-17.91182
400.287	15.80599
400.5	-70.58328
400.714	-26.3403
400.927	-13.69743
401.141	36.88273
401.354	83.25972
401.567	-79.00925
401.781	45.31408
401.994	-38.98228
402.208	62.17789
402.421	5.26851
402.635	11.59093
402.848	45.31408
403.061	15.80599
403.275	49.5299
403.488	30.55946
403.701	-5.26836
403.915	15.80599
404.128	34.77495
404.341	-13.69743
404.555	-22.12611
404.768	-38.98228
404.981	-30.55439
405.195	-30.55439
405.408	-26.3403
405.621	55.85379
405.834	11.59093
406.048	30.55946
406.261	-22.12611
406.474	11.59093
406.687	-13.69743
406.9	28.45175
407.114	-5.26836
407.327	7.37596
407.54	70.61035
407.753	-55.83685
407.966	1.05369
408.179	20.02115
408.392	-7.37567
408.605	22.12877
408.819	9.48343
409.032	30.55946
409.245	38.99053
409.458	24.2364
409.671	-38.98228
409.884	1.05369
410.097	53.7458
410.31	-20.01897
410.523	-3.16104
410.736	55.85379
410.949	-3.16104
411.162	-9.48295
411.375	-3.16104
411.588	-62.1569
411.801	-30.55439
412.014	28.45175
412.227	28.45175
412.44	-13.69743
412.653	53.7458
412.865	74.82672
413.078	-22.12611
413.291	53.7458
413.504	-22.12611
413.717	5.26851
413.93	-55.83685
414.143	-9.48295
414.356	-3.16104
414.568	11.59093
414.781	36.88273
414.994	106.45231
415.207	-22.12611
415.42	-32.6614
415.632	-1.05368
415.845	-62.1569
416.058	28.45175
416.271	7.37596
416.483	-9.48295
416.696	-1.05368
416.909	5.26851
417.121	-13.69743
417.334	-85.32845
417.547	38.99053
417.759	-30.55439
417.972	-11.5902
418.185	15.80599
418.397	-43.19607
418.61	-32.6614
418.823	-76.90279
419.035	26.34407
419.248	28.45175
419.46	-5.26836
419.673	45.31408
419.885	20.02115
420.098	-47.40976
420.311	3.16109
420.523	-30.55439
420.736	98.01833
420.948	-20.01897
421.161	7.37596
421.373	-30.55439
421.586	-30.55439
421.798	-22.12611
422.01	-30.55439
422.223	-32.6614
422.435	28.45175
422.648	-20.01897
422.86	36.88273
423.073	62.17789
423.285	95.90989
423.497	36.88273
423.71	-9.48295
423.922	51.63784
424.134	36.88273
424.347	-11.5902
424.559	47.42198
424.771	34.77495
424.984	-66.37014
425.196	-11.5902
425.408	11.59093
425.621	20.02115
425.833	62.17789
426.045	11.59093
426.257	13.69845
426.47	7.37596
426.682	-38.98228
426.894	-11.5902
427.106	-30.55439
427.318	-22.12611
427.531	-32.6614
427.743	55.85379
427.955	-20.01897
428.167	-15.80464
428.379	123.32132
428.591	24.2364
428.804	7.37596
429.016	70.61035
429.228	45.31408
429.44	-22.12611
429.652	13.69845
429.864	53.7458
430.076	-1.05368
430.288	3.16109
430.5	-22.12611
430.712	-43.19607
430.924	-62.1569
431.136	36.88273
431.348	-34.76838
431.56	55.85379
431.772	87.47635
431.984	34.77495
432.196	13.69845
432.408	-1.05368
432.62	79.04317
432.832	30.55946
433.044	5.26851
433.256	-51.62336
433.468	7.37596
433.679	13.69845
433.891	-20.01897
434.103	20.02115
434.315	20.02115
434.527	28.45175
434.739	3.16109
434.95	-5.26836
435.162	3.16109
435.374	55.85379
435.586	36.88273
435.798	43.20621
436.009	7.37596
436.221	32.66719
436.433	-68.47672
436.645	45.31408
436.856	-38.98228
437.068	-20.01897
437.28	91.69308
437.491	49.5299
437.703	74.82672
437.915	-5.26836
438.126	41.09836
438.338	-22.12611
438.55	-30.55439
438.761	-26.3403
438.973	-34.76838
439.184	72.71852
439.396	32.66719
439.608	60.06984
439.819	7.37596
440.031	-38.98228
440.242	34.77495
440.454	7.37596
440.665	30.55946
440.877	83.25972
441.088	20.02115
441.3	20.02115
441.511	32.66719
441.723	28.45175
441.934	36.88273
442.146	45.31408
442.357	-38.98228
442.569	36.88273
442.78	53.7458
442.991	102.23527
443.203	43.20621
443.414	13.69845
443.626	26.34407
443.837	28.45175
444.048	1.05369
444.26	104.34378
444.471	-5.26836
444.682	-13.69743
444.894	7.37596
445.105	7.37596
445.316	49.5299
445.528	-13.69743
445.739	-22.12611
445.95	26.34407
446.161	9.48343
446.373	-1.05368
446.584	62.17789
446.795	7.37596
447.006	22.12877
447.217	-47.40976
447.429	-5.26836
447.64	95.90989
447.851	-60.05024
448.062	-97.96616
448.273	45.31408
448.484	1.05369
448.695	32.66719
448.907	-41.08919
449.118	-60.05024
449.329	30.55946
449.54	-30.55439
449.751	74.82672
449.962	70.61035
450.173	-36.87534
450.384	64.28597
450.595	93.80147
450.806	3.16109
451.017	-26.3403
451.228	9.48343
451.439	34.77495
451.65	13.69845
451.861	11.59093
452.072	-5.26836
452.283	72.71852
452.494	11.59093
452.705	41.09836
452.915	3.16109
453.126	41.09836
453.337	-22.12611
453.548	17.91356
453.759	57.9618
453.97	-5.26836
454.181	41.09836
454.391	45.31408
454.602	24.2364
454.813	34.77495
455.024	28.45175
455.235	20.02115
455.445	7.37596
455.656	20.02115
455.867	-3.16104
456.078	72.71852
456.288	-5.26836
456.499	38.99053
456.71	53.7458
456.921	53.7458
457.131	47.42198
457.342	-47.40976
457.553	-17.91182
457.763	-76.90279
457.974	121.21262
458.184	13.69845
458.395	22.12877
458.606	-26.3403
458.816	36.88273
459.027	91.69308
459.237	49.5299
459.448	119.10394
459.659	26.34407
459.869	-26.3403
460.08	7.37596
460.29	135.97399
460.501	53.7458
460.711	49.5299
460.922	28.45175
461.132	22.12877
461.343	93.80147
461.553	98.01833
461.764	47.42198
461.974	45.31408
462.184	74.82672
462.395	20.02115
462.605	36.88273
462.816	55.85379
463.026	3.16109
463.236	-32.6614
463.447	28.45175
463.657	3.16109
463.867	123.32132
464.078	89.5847
464.288	87.47635
464.498	5.26851
464.709	-22.12611
464.919	142.30062
465.129	-13.69743
465.339	49.5299
465.55	38.99053
465.76	-38.98228
465.97	98.01833
466.18	87.47635
466.391	70.61035
466.601	20.02115
466.811	70.61035
467.021	-45.30293
467.231	72.71852
467.441	89.5847
467.651	-13.69743
467.862	47.42198
468.072	98.01833
468.282	70.61035
468.492	150.73642
468.702	38.99053
468.912	51.63784
469.122	-13.69743
469.332	95.90989
469.542	70.61035
469.752	62.17789
469.962	95.90989
470.172	171.82738
470.382	163.39074
470.592	129.64756
470.802	121.21262
471.012	70.61035
471.222	68.5022
471.432	76.93493
471.642	148.62743
471.852	125.43005
472.062	112.77803
472.272	70.61035
472.482	161.28164
472.691	159.17255
472.901	123.32132
473.111	119.10394
473.321	121.21262
473.531	95.90989
473.741	131.75635
473.95	171.82738
474.16	100.12679
474.37	131.75635
474.58	133.86516
474.79	108.56086
474.999	171.82738
475.209	112.77803
475.419	205.57721
475.628	159.17255
475.838	184.48295
476.048	157.06349
476.258	207.68674
476.467	205.57721
476.677	235.11252
476.886	266.76173
477.096	146.51847
477.306	157.06349
477.515	330.07274
477.725	159.17255
477.935	214.01547
478.144	323.7409
478.354	254.10153
478.563	344.84764
478.773	281.53282
478.982	256.21151
479.192	349.06919
479.401	351.18
479.611	281.53282
479.82	315.29871
480.03	247.77168
480.239	323.7409
480.449	365.95611
480.658	380.73305
480.868	382.84411
481.077	513.76086
481.287	372.28898
481.496	412.40067
481.705	365.95611
481.915	425.06875
482.124	416.6233
482.333	410.28938
482.543	484.19387
482.752	418.73464
482.961	469.41147
483.171	674.31378
483.38	536.99404
483.589	536.99404
483.799	536.99404
484.008	564.4536
484.217	465.18806
484.426	545.44289
484.636	663.74887
484.845	765.18357
485.054	629.94312
485.263	727.14263
485.472	638.39427
485.682	788.43243
485.891	771.52405
486.1	839.16122
486.309	744.0493
486.518	786.31885
486.727	839.16122
486.936	915.26385
487.146	872.98328
487.355	936.4053
487.564	784.20528
487.773	917.37796
487.982	904.69341
488.191	961.776
488.4	822.25103
488.609	940.63367
488.818	995.60516
489.027	1061.15372
489.236	1035.77941
489.445	1204.95472
489.654	1101.33129
489.863	1012.52036
490.072	1160.54348
490.281	1130.93695
490.49	1152.08439
490.698	1185.92113
490.907	1162.65826
491.116	1291.6664
491.325	1236.67796
491.534	1287.43646
491.743	1287.43646
491.952	1331.85121
492.16	1348.77131
492.369	1342.42626
492.578	1431.25782
492.787	1549.7003
492.996	1340.31125
493.204	1496.8244
493.413	1484.13411
493.622	1646.98964
493.831	1524.31994
494.039	1638.52987
494.248	1543.35523
494.457	1716.78113
494.665	1640.64482
494.874	1725.24048
495.083	1651.21952
495.291	1854.2379
495.5	1756.96254
495.709	1862.69617
495.917	1710.43658
496.126	1938.81688
496.335	1854.2379
496.543	1896.52846
496.752	1959.96023
496.96	1970.53168
497.169	2036.07112
497.377	2171.35682
497.586	1909.21522
497.794	1981.10297
498.003	2040.29926
498.211	2137.53834
498.42	2091.03465
498.628	2198.83278
498.837	2116.40076
499.045	2217.85377
499.254	2133.31088
499.462	2446.04647
499.671	2317.1738
499.879	2386.89654
500.087	2260.12008
500.296	2458.72037
500.504	2355.20573
500.713	2386.89654
500.921	2226.30731
501.129	2490.40338
501.338	2213.62694
501.546	2745.88226
501.754	2336.19016
501.962	2606.55238
502.171	2490.40338
502.379	2623.44378
502.587	2456.60808
502.795	2653.00182
503.004	2583.32544
503.212	2672.00212
503.42	2574.87891
503.628	2899.92187
503.837	2629.77785
504.045	2834.51686
504.253	2572.76725
504.461	2880.93473
504.669	2672.00212
504.877	2967.42214
505.085	2874.60542
505.294	2980.07675
505.502	2859.83655
505.71	2961.09463
505.918	2895.7026
506.126	3201.44209
506.334	3041.23301
506.542	3108.7007
506.75	2887.2639
506.958	3174.0445
507.166	2980.07675
507.374	3222.51527
507.582	2961.09463
507.79	3289.9382
507.998	3034.9071
508.206	3289.9382
508.414	3091.83529
508.622	3258.33585
508.83	3138.21272
509.037	3359.44984
509.245	3066.53527
509.453	3382.61618
509.661	3403.67466
509.869	3508.94027
510.077	3146.64414
510.285	3477.36531
510.492	3348.91898
510.7	3466.83942
510.908	3395.25148
511.116	3445.78629
511.324	3433.15355
511.531	3668.85617
511.739	3536.30191
511.947	3645.71715
512.155	3538.40652
512.362	3654.13161
512.57	3668.85617
512.778	3677.26979
512.985	3597.32818
513.193	3795.02808
513.401	3736.15652
513.608	3847.57896
513.816	3879.10354
514.024	3862.29099
514.231	3740.36214
514.439	3824.45809
514.646	3946.34092
514.854	3990.45418
515.061	3723.53921
515.269	3816.04991
515.477	4015.65772
515.684	4080.75314
515.892	3799.2326
516.099	3866.49425
516.307	3887.50934
516.514	4261.23523
516.722	4181.50657
516.929	4074.45445
517.136	4219.2766
517.344	4288.50375
517.551	3998.85569
517.759	4328.3512
517.966	4212.98208
518.173	4366.09424
518.381	4068.15558
518.588	4204.58908
518.796	4141.63078
519.003	4563.08172
519.21	4261.23523
519.418	4378.67369
519.625	4252.84418
519.832	4609.15697
520.039	4504.42493
520.247	4676.15621
520.454	4558.89252
520.661	4623.81501
520.868	4387.05955
521.076	4824.72834
521.283	4424.79163
521.49	4795.44147
521.697	4592.40358
521.904	4726.39053
522.112	4502.32973
522.319	4826.82009
522.526	4801.71761
522.733	4895.83499
522.94	4747.31767
523.147	4680.3429
523.354	4745.22506
523.561	4904.19874
523.768	4793.34938
523.975	5067.21831
524.183	4839.37011
524.39	5073.48548
524.597	4881.19755
524.804	5177.9077
525.011	5029.61086
525.218	5086.01922
525.425	5182.08338
525.632	5081.8414
525.838	5125.70385
526.045	5288.53168
526.252	5152.85167
526.459	5271.83793
526.666	5198.78517
526.873	5324.00094
527.08	5219.66031
527.287	5319.82844
527.494	5098.55211
527.701	5647.08395
527.907	5374.06365
528.114	5424.11285
528.321	5436.62303
528.528	5265.57739
528.735	5649.16652
528.941	5611.67666
529.148	5432.45307
529.355	5574.17916
529.562	5572.09575
529.768	5586.67918
529.975	5361.54924
530.182	5869.78506
530.388	5449.13237
530.595	5946.73098
530.802	5844.82268
531.008	6112.99027
531.215	5878.10509
531.422	6034.0359
531.628	5886.42475
531.835	5928.01738
532.042	5817.77628
532.248	6110.91295
532.455	5934.25546
532.661	6054.81666
532.868	6108.83562
533.074	6243.81353
533.281	5996.6246
533.487	6088.06098
533.694	5988.30994
533.9	6330.97737
534.107	6002.86034
534.313	6270.79723
534.52	6040.27037
534.726	6380.76677
534.933	6351.72459
535.139	6384.91528
535.345	6260.41935
535.552	6277.02367
535.758	6274.94821
535.965	6492.74386
536.171	6484.45159
536.377	6699.93047
536.584	6422.24768
536.79	6590.15032
536.996	6633.65585
537.203	6770.3215
537.409	6486.52469
537.615	6778.60105
537.821	6563.21322
538.028	6768.25155
538.234	6527.98189
538.44	6693.71822
538.646	6664.72501
538.853	7022.68441
539.059	6766.18158
539.265	6875.85853
539.471	6846.89348
539.677	6939.97961
539.883	6658.5116
540.09	6838.61693
540.296	6836.54774
540.502	7107.41952
540.708	6749.621
540.914	7144.60844
541.12	6987.53927
541.326	7099.15434
541.532	7064.02331
541.738	7183.85559
541.944	7030.95291
542.15	7330.44533
542.356	7037.15405
542.562	7171.46262
542.768	6993.74183
542.974	7371.71823
543.18	7311.86967
543.386	7716.00966
543.592	7565.58454
543.798	7309.8056
544.004	7315.99775
544.21	7584.13623
544.415	7278.84189
544.621	7553.21578
544.827	7313.93372
545.033	7573.82995
545.239	7608.86912
545.445	7742.78587
545.651	7417.10834
545.856	7718.06949
546.062	7497.54682
546.268	7612.99097
546.474	7493.42257
546.679	7555.27729
546.885	7695.41015
547.091	7722.1891
547.297	7528.47595
547.502	7695.41015
547.708	7812.7992
547.914	7678.92903
548.119	7753.08346
548.325	7942.4663
548.531	7709.83003
548.736	7995.9559
548.942	7812.7992
549.147	7942.4663
549.353	8137.84253
549.559	7995.9559
549.764	8014.46832
549.97	7956.86871
550.175	8135.78688
550.381	8209.77747
550.586	7866.32256
550.792	8515.74602
550.997	8148.12044
551.203	8166.61943
551.408	8211.8324
551.614	8082.33312
551.819	8156.34242
552.025	8443.91277
552.23	8152.23147
552.435	8310.44566
552.641	8464.43894
552.846	8425.43758
553.052	8480.8585
553.257	8482.91086
553.462	8788.50248
553.668	8743.40745
553.873	8536.26552
554.078	8669.59644
554.283	8587.55601
554.489	8786.4529
554.694	8601.91525
554.899	8909.39587
555.105	9017.94208
555.31	8960.6031
555.515	8587.55601
555.72	8940.12154
555.925	8591.65875
556.131	8983.13077
556.336	8745.45742
556.541	8893.00721
556.746	8878.6662
556.951	8870.47094
557.156	8755.70697
557.361	8989.27431
557.567	9081.40854
557.772	9050.70105
557.977	8798.75012
558.182	9077.31443
558.387	9013.8469
558.592	9206.24577
558.797	9001.56092
559.002	9103.92488
559.207	9105.97172
559.412	9423.02719
559.617	8989.27431
559.822	9153.04424
560.027	9073.22025
560.232	9153.04424
560.437	9161.22984
560.642	9150.99779
560.847	9296.25315
561.051	9185.785
561.256	9324.88508
561.461	9504.78368
561.666	9320.795
561.871	9437.33644
562.076	9341.24472
562.281	9580.38567
562.485	9355.55855
562.69	9345.33447
562.895	9316.70486
563.1	9308.52437
563.305	9371.91622
563.509	9664.13571
563.714	9553.82528
563.919	9611.02898
564.123	9474.12802
564.328	9461.86474
564.533	9547.69558
564.737	9766.23477
564.942	9529.30563
565.147	9741.73447
565.351	9745.81801
565.556	9537.4791
565.761	9807.06375
565.965	9655.96613
566.17	9717.23199
566.374	9807.06375
566.579	9847.88673
566.784	9713.14803
566.988	10013.15952
567.193	9929.5149
567.397	9735.60906
567.602	10072.30821
567.806	9717.23199
568.011	10011.1197
568.215	10070.2688
568.42	10005.00014
568.624	10043.75517
568.828	9953.99877
569.033	9735.60906
569.237	10263.95066
569.442	10170.18345
569.646	10011.1197
569.85	10068.22938
570.055	10257.83629
570.259	10106.97605
570.463	10247.64539
570.668	10084.54439
570.872	9992.76063
571.076	10143.67875
571.281	10435.10443
571.485	10117.1717
571.689	10184.45424
571.893	10141.63983
572.098	10270.06492
572.302	10011.1197
572.506	10538.97437
572.71	10235.41587
572.914	10561.37336
573.119	10640.77579
573.323	10321.01232
573.527	10268.02685
573.731	10630.59705
573.935	10565.44574
574.139	10669.27466
574.343	10589.87897
574.547	10846.32191
574.751	10834.11462
574.955	10781.21153
575.159	10683.52319
575.364	10642.81151
575.568	10581.73476
575.772	10567.48191
575.976	10736.44113
576.18	10775.10681
576.383	10779.17663
576.587	11090.38175
576.791	10893.11264
