Data from mixed_try1_USB4F045381__17__00121.txt Node

Date: Thu Apr 03 20:00:25 EDT 2025
User: mmckonesweet
Spectrometer: USB4F04538
Trigger mode: 4
Integration Time (sec): 2.700000E-3
Scans to average: 1
Electric dark correction enabled: true
Nonlinearity correction enabled: true
Boxcar width: 0
XAxis mode: Wavelengths
Number of Pixels in Spectrum: 3648
>>>>>Begin Spectral Data<<<<<
345.52	52.69182
345.736	52.69182
345.952	52.69182
346.168	-18.9654
346.384	-6.32202
346.6	12.64469
346.816	12.64469
347.032	-21.07254
347.248	-8.42931
347.464	-92.70056
347.68	4.2148
347.896	77.98905
348.112	56.90779
348.328	-10.53658
348.544	-14.75104
348.76	-6.32202
348.975	-10.53658
349.191	-14.75104
349.407	10.53718
349.623	10.53718
349.839	-69.53
350.055	10.53718
350.27	27.39791
350.486	-46.35635
350.702	2.10739
350.918	0
351.133	10.53718
351.349	44.26014
351.565	29.5056
351.781	23.18258
351.996	-27.39383
352.212	44.26014
352.428	8.4297
352.644	14.75222
352.859	21.07496
353.075	35.82884
353.291	10.53718
353.506	27.39791
353.722	35.82884
353.938	18.96735
354.153	67.44814
354.369	-18.9654
354.584	-14.75104
354.8	-35.82187
355.016	44.26014
355.231	-56.89021
355.447	54.79979
355.662	-8.42931
355.878	145.464
356.093	56.90779
356.309	-18.9654
356.524	-6.32202
356.74	6.32224
356.955	69.55627
357.171	-2.10736
357.386	-21.07254
357.602	107.50658
357.817	52.69182
358.033	31.61332
358.248	80.0973
358.464	69.55627
358.679	2.10739
358.895	-21.07254
359.11	14.75222
359.325	52.69182
359.541	21.07496
359.756	27.39791
359.972	-29.50088
360.187	103.28953
360.402	44.26014
360.618	21.07496
360.833	-27.39383
361.048	52.69182
361.264	52.69182
361.479	37.93663
361.694	12.64469
361.909	4.2148
362.125	27.39791
362.34	-12.64382
362.555	31.61332
362.77	16.85977
362.986	2.10739
363.201	-35.82187
363.416	-4.2147
363.631	27.39791
363.847	-12.64382
364.062	10.53718
364.277	90.63889
364.492	27.39791
364.707	6.32224
364.922	21.07496
365.138	12.64469
365.353	-63.21022
365.568	-73.74306
365.783	77.98905
365.998	37.93663
366.213	-40.03573
366.428	-6.32202
366.643	-46.35635
366.858	2.10739
367.073	6.32224
367.288	-29.50088
367.503	-18.9654
367.718	23.18258
367.933	-52.67674
368.148	31.61332
368.363	-6.32202
368.578	25.29023
368.793	82.20557
369.008	29.5056
369.223	14.75222
369.438	-18.9654
369.653	4.2148
369.868	18.96735
370.083	-31.6079
370.298	10.53718
370.513	56.90779
370.728	-18.9654
370.943	-71.63655
371.157	14.75222
371.372	-27.39383
371.587	35.82884
371.802	-46.35635
372.017	37.93663
372.232	23.18258
372.446	99.07256
372.661	94.85568
372.876	2.10739
373.091	-23.17966
373.306	12.64469
373.52	88.53052
373.735	77.98905
373.95	-23.17966
374.165	-40.03573
374.379	18.96735
374.594	-23.17966
374.809	46.36803
375.023	8.4297
375.238	69.55627
375.453	18.96735
375.667	6.32224
375.882	12.64469
376.097	2.10739
376.311	-6.32202
376.526	10.53718
376.741	18.96735
376.955	56.90779
377.17	65.34002
377.384	14.75222
377.599	27.39791
377.813	25.29023
378.028	-40.03573
378.242	88.53052
378.457	44.26014
378.672	52.69182
378.886	80.0973
379.101	12.64469
379.315	73.77262
379.53	-63.21022
379.744	12.64469
379.958	46.36803
380.173	21.07496
380.387	-2.10736
380.602	-23.17966
380.816	69.55627
381.031	4.2148
381.245	25.29023
381.459	31.61332
381.674	46.36803
381.888	-35.82187
382.103	54.79979
382.317	65.34002
382.531	25.29023
382.746	54.79979
382.96	-12.64382
383.174	-35.82187
383.388	59.01582
383.603	27.39791
383.817	61.12386
384.031	-14.75104
384.246	31.61332
384.46	10.53718
384.674	23.18258
384.888	-18.9654
385.103	18.96735
385.317	2.10739
385.531	21.07496
385.745	4.2148
385.959	10.53718
386.174	4.2148
386.388	33.72107
386.602	48.47593
386.816	-10.53658
387.03	-14.75104
387.244	4.2148
387.458	-86.38163
387.672	35.82884
387.887	44.26014
388.101	48.47593
388.315	-40.03573
388.529	54.79979
388.743	35.82884
388.957	56.90779
389.171	14.75222
389.385	35.82884
389.599	18.96735
389.813	-14.75104
390.027	6.32224
390.241	35.82884
390.455	-42.14263
390.669	31.61332
390.883	-2.10736
391.097	42.15228
391.311	4.2148
391.525	31.61332
391.738	6.32224
391.952	-10.53658
392.166	31.61332
392.38	-6.32202
392.594	4.2148
392.808	23.18258
393.022	6.32224
393.236	6.32224
393.449	-6.32202
393.663	-4.2147
393.877	-31.6079
394.091	44.26014
394.305	-71.63655
394.518	-65.31684
394.732	61.12386
394.946	4.2148
395.16	35.82884
395.373	69.55627
395.587	35.82884
395.801	54.79979
396.015	46.36803
396.228	50.58386
396.442	-40.03573
396.656	29.5056
396.869	31.61332
397.083	-10.53658
397.297	14.75222
397.51	23.18258
397.724	25.29023
397.938	46.36803
398.151	10.53718
398.365	-52.67674
398.578	56.90779
398.792	4.2148
399.005	27.39791
399.219	56.90779
399.433	71.66443
399.646	-35.82187
399.86	-14.75104
400.073	37.93663
400.287	44.26014
400.5	42.15228
400.714	12.64469
400.927	18.96735
401.141	94.85568
401.354	27.39791
401.567	-4.2147
401.781	73.77262
401.994	44.26014
402.208	92.74727
402.421	71.66443
402.635	29.5056
402.848	-25.28676
403.061	-61.10358
403.275	40.04444
403.488	35.82884
403.701	12.64469
403.915	31.61332
404.128	-14.75104
404.341	31.61332
404.555	44.26014
404.768	27.39791
404.981	14.75222
405.195	-14.75104
405.408	6.32224
405.621	2.10739
405.834	2.10739
406.048	-23.17966
406.261	69.55627
406.474	31.61332
406.687	-12.64382
406.9	56.90779
407.114	-27.39383
407.327	54.79979
407.54	42.15228
407.753	44.26014
407.966	6.32224
408.179	-23.17966
408.392	73.77262
408.605	-21.07254
408.819	-8.42931
409.032	69.55627
409.245	105.39804
409.458	2.10739
409.671	-35.82187
409.884	18.96735
410.097	35.82884
410.31	61.12386
410.523	80.0973
410.736	-40.03573
410.949	27.39791
411.162	40.04444
411.375	14.75222
411.588	-6.32202
411.801	56.90779
412.014	21.07496
412.227	-44.2495
412.44	77.98905
412.653	71.66443
412.865	40.04444
413.078	14.75222
413.291	-35.82187
413.504	31.61332
413.717	59.01582
413.93	59.01582
414.143	63.23193
414.356	-12.64382
414.568	61.12386
414.781	27.39791
414.994	46.36803
415.207	52.69182
415.42	56.90779
415.632	10.53718
415.845	-6.32202
416.058	-21.07254
416.271	42.15228
416.483	69.55627
416.696	120.15828
416.909	-2.10736
417.121	52.69182
417.334	52.69182
417.547	69.55627
417.759	84.31387
417.972	40.04444
418.185	14.75222
418.397	-6.32202
418.61	61.12386
418.823	71.66443
419.035	54.79979
419.248	35.82884
419.46	10.53718
419.673	-48.46317
419.885	-46.35635
420.098	29.5056
420.311	46.36803
420.523	40.04444
420.736	52.69182
420.948	61.12386
421.161	111.72373
421.373	84.31387
421.586	2.10739
421.798	-10.53658
422.01	61.12386
422.223	-99.01926
422.435	8.4297
422.648	61.12386
422.86	42.15228
423.073	71.66443
423.285	14.75222
423.497	-18.9654
423.71	50.58386
423.922	48.47593
424.134	21.07496
424.347	52.69182
424.559	-27.39383
424.771	48.47593
424.984	56.90779
425.196	54.79979
425.408	-48.46317
425.621	113.83233
425.833	-14.75104
426.045	-31.6079
426.257	-37.92881
426.47	18.96735
426.682	-10.53658
426.894	10.53718
427.106	-6.32202
427.318	2.10739
427.531	23.18258
427.743	46.36803
427.955	21.07496
428.167	-46.35635
428.379	31.61332
428.591	27.39791
428.804	35.82884
429.016	-37.92881
429.228	-54.78349
429.44	-14.75104
429.652	-21.07254
429.864	-6.32202
430.076	65.34002
430.288	14.75222
430.5	37.93663
430.712	63.23193
430.924	-14.75104
431.136	-40.03573
431.348	77.98905
431.56	12.64469
431.772	29.5056
431.984	-31.6079
432.196	29.5056
432.408	56.90779
432.62	29.5056
432.832	44.26014
433.044	21.07496
433.256	77.98905
433.468	27.39791
433.679	46.36803
433.891	-14.75104
434.103	25.29023
434.315	-6.32202
434.527	54.79979
434.739	35.82884
434.95	120.15828
435.162	-14.75104
435.374	29.5056
435.586	67.44814
435.798	-2.10736
436.009	90.63889
436.221	42.15228
436.433	-44.2495
436.645	-21.07254
436.856	-14.75104
437.068	10.53718
437.28	40.04444
437.491	86.42218
437.703	73.77262
437.915	46.36803
438.126	-14.75104
438.338	18.96735
438.55	-44.2495
438.761	-14.75104
438.973	29.5056
439.184	27.39791
439.396	23.18258
439.608	77.98905
439.819	63.23193
440.031	21.07496
440.242	35.82884
440.454	12.64469
440.665	35.82884
440.877	88.53052
441.088	2.10739
441.3	18.96735
441.511	29.5056
441.723	40.04444
441.934	21.07496
442.146	10.53718
442.357	46.36803
442.569	23.18258
442.78	69.55627
442.991	-21.07254
443.203	44.26014
443.414	8.4297
443.626	61.12386
443.837	50.58386
444.048	80.0973
444.26	105.39804
444.471	-23.17966
444.682	-2.10736
444.894	52.69182
445.105	27.39791
445.316	99.07256
445.528	27.39791
445.739	14.75222
445.95	44.26014
446.161	35.82884
446.373	29.5056
446.584	12.64469
446.795	10.53718
447.006	8.4297
447.217	-52.67674
447.429	31.61332
447.64	69.55627
447.851	23.18258
448.062	31.61332
448.273	14.75222
448.484	69.55627
448.695	-8.42931
448.907	-23.17966
449.118	40.04444
449.329	82.20557
449.54	29.5056
449.751	16.85977
449.962	48.47593
450.173	-6.32202
450.384	-25.28676
450.595	37.93663
450.806	-25.28676
451.017	48.47593
451.228	-18.9654
451.439	6.32224
451.65	-4.2147
451.861	37.93663
452.072	-2.10736
452.283	33.72107
452.494	61.12386
452.705	-4.2147
452.915	23.18258
453.126	-40.03573
453.337	2.10739
453.548	77.98905
453.759	54.79979
453.97	82.20557
454.181	10.53718
454.391	-12.64382
454.602	23.18258
454.813	37.93663
455.024	92.74727
455.235	56.90779
455.445	-21.07254
455.656	35.82884
455.867	-12.64382
456.078	73.77262
456.288	21.07496
456.499	33.72107
456.71	35.82884
456.921	-6.32202
457.131	27.39791
457.342	23.18258
457.553	21.07496
457.763	25.29023
457.974	44.26014
458.184	44.26014
458.395	31.61332
458.606	21.07496
458.816	2.10739
459.027	23.18258
459.237	8.4297
459.448	31.61332
459.659	67.44814
459.869	21.07496
460.08	29.5056
460.29	-6.32202
460.501	-46.35635
460.711	-14.75104
460.922	40.04444
461.132	44.26014
461.343	59.01582
461.553	6.32224
461.764	8.4297
461.974	27.39791
462.184	16.85977
462.395	-10.53658
462.605	27.39791
462.816	2.10739
463.026	29.5056
463.236	-33.71489
463.447	-61.10358
463.657	35.82884
463.867	2.10739
464.078	37.93663
464.288	31.61332
464.498	111.72373
464.709	23.18258
464.919	12.64469
465.129	40.04444
465.339	-10.53658
465.55	50.58386
465.76	96.96411
465.97	4.2148
466.18	52.69182
466.391	82.20557
466.601	-21.07254
466.811	10.53718
467.021	56.90779
467.231	101.18103
467.441	12.64469
467.651	44.26014
467.862	8.4297
468.072	-23.17966
468.282	6.32224
468.492	46.36803
468.702	44.26014
468.912	-12.64382
469.122	-12.64382
469.332	56.90779
469.542	4.2148
469.752	10.53718
469.962	99.07256
470.172	37.93663
470.382	2.10739
470.592	59.01582
470.802	52.69182
471.012	18.96735
471.222	-6.32202
471.432	25.29023
471.642	23.18258
471.852	35.82884
472.062	35.82884
472.272	37.93663
472.482	69.55627
472.691	21.07496
472.901	50.58386
473.111	10.53718
473.321	-27.39383
473.531	42.15228
473.741	75.88082
473.95	54.79979
474.16	16.85977
474.37	54.79979
474.58	31.61332
474.79	33.72107
474.999	37.93663
475.209	80.0973
475.419	88.53052
475.628	35.82884
475.838	31.61332
476.048	153.89993
476.258	56.90779
476.467	40.04444
476.677	12.64469
476.886	86.42218
477.096	31.61332
477.306	44.26014
477.515	37.93663
477.725	-23.17966
477.935	16.85977
478.144	69.55627
478.354	2.10739
478.563	54.79979
478.773	88.53052
478.982	2.10739
479.192	42.15228
479.401	69.55627
479.611	-40.03573
479.82	-2.10736
480.03	77.98905
480.239	59.01582
480.449	37.93663
480.658	44.26014
480.868	6.32224
481.077	35.82884
481.287	12.64469
481.496	-33.71489
481.705	80.0973
481.915	-4.2147
482.124	120.15828
482.333	48.47593
482.543	14.75222
482.752	54.79979
482.961	40.04444
483.171	2.10739
483.38	29.5056
483.589	52.69182
483.799	80.0973
484.008	35.82884
484.217	29.5056
484.426	35.82884
484.636	65.34002
484.845	77.98905
485.054	52.69182
485.263	54.79979
485.472	54.79979
485.682	14.75222
485.891	120.15828
486.1	14.75222
486.309	73.77262
486.518	94.85568
486.727	61.12386
486.936	-2.10736
487.146	120.15828
487.355	14.75222
487.564	59.01582
487.773	35.82884
487.982	65.34002
488.191	130.70195
488.4	37.93663
488.609	75.88082
488.818	69.55627
489.027	86.42218
489.236	56.90779
489.445	99.07256
489.654	46.36803
489.863	77.98905
490.072	37.93663
490.281	-23.17966
490.49	183.42829
490.698	12.64469
490.907	61.12386
491.116	54.79979
491.325	44.26014
491.534	94.85568
491.743	172.88198
491.952	63.23193
492.16	137.02842
492.369	50.58386
492.578	92.74727
492.787	-6.32202
492.996	109.61514
493.204	2.10739
493.413	107.50658
493.622	88.53052
493.831	82.20557
494.039	25.29023
494.248	27.39791
494.457	145.464
494.665	90.63889
494.874	103.28953
495.083	111.72373
495.291	14.75222
495.5	86.42218
495.709	130.70195
495.917	103.28953
496.126	94.85568
496.335	69.55627
496.543	94.85568
496.752	124.37568
496.96	82.20557
497.169	115.94096
497.377	69.55627
497.586	141.24617
497.794	105.39804
498.003	141.24617
498.211	153.89993
498.42	149.68192
498.628	86.42218
498.837	109.61514
499.045	128.59318
499.254	177.10045
499.462	149.68192
499.671	137.02842
499.879	124.37568
500.087	153.89993
500.296	145.464
500.504	105.39804
500.713	183.42829
500.921	158.11802
501.129	141.24617
501.338	153.89993
501.546	128.59318
501.754	143.35507
501.962	141.24617
502.171	166.55444
502.379	122.26697
502.587	21.07496
502.795	124.37568
503.004	128.59318
503.212	122.26697
503.42	96.96411
503.628	143.35507
503.837	122.26697
504.045	162.33619
504.253	111.72373
504.461	145.464
504.669	141.24617
504.877	109.61514
505.085	141.24617
505.294	139.13728
505.502	137.02842
505.71	145.464
505.918	177.10045
506.126	191.86571
506.334	240.38709
506.542	183.42829
506.75	187.64696
506.958	187.64696
507.166	185.53762
507.374	231.94784
507.582	137.02842
507.79	118.04961
507.998	179.20971
508.206	172.88198
508.414	158.11802
508.622	189.75633
508.83	105.39804
509.037	212.96067
509.245	196.08454
509.453	217.1799
509.661	179.20971
509.869	183.42829
510.077	158.11802
510.285	253.04654
510.492	191.86571
510.7	229.83807
510.908	236.16742
511.116	196.08454
511.324	168.6636
511.531	139.13728
511.739	164.4453
511.947	242.49695
512.155	223.5089
512.362	137.02842
512.57	267.81677
512.778	217.1799
512.985	231.94784
513.193	246.71673
513.401	196.08454
513.608	238.27725
513.816	200.30345
514.024	297.36
514.231	305.80158
514.439	231.94784
514.646	225.6186
514.854	255.15652
515.061	147.57295
515.269	288.91871
515.477	274.14716
515.684	272.03701
515.892	263.59661
516.099	318.4645
516.307	246.71673
516.514	297.36
516.722	193.97512
516.929	314.24345
517.136	291.029
517.344	314.24345
517.551	312.13296
517.759	305.80158
517.966	339.57079
518.173	259.37653
518.381	297.36
518.588	280.47771
518.796	267.81677
519.003	257.26651
519.21	301.58075
519.418	221.39921
519.625	269.92688
519.832	206.63197
520.039	314.24345
520.247	367.01157
520.454	272.03701
520.661	274.14716
520.868	272.03701
521.076	388.12183
521.283	316.35397
521.49	322.68561
521.697	367.01157
521.904	377.56649
522.112	339.57079
522.319	381.78858
522.526	398.67758
522.733	459.90888
522.94	348.0138
523.147	375.45547
523.354	381.78858
523.561	451.4624
523.768	274.14716
523.975	453.574
524.183	375.45547
524.39	443.01617
524.597	337.46008
524.804	449.35082
525.011	432.45872
525.218	398.67758
525.425	337.46008
525.632	474.69081
525.838	375.45547
526.045	390.23295
526.252	434.57018
526.459	417.67897
526.666	364.90064
526.873	470.46733
527.08	375.45547
527.287	510.59283
527.494	364.90064
527.701	436.68165
527.907	440.90465
528.114	525.37723
528.321	462.02054
528.528	500.03297
528.735	455.68561
528.941	468.35561
529.148	519.04098
529.355	533.82578
529.562	476.80258
529.768	614.09776
529.975	569.73455
530.182	521.15305
530.388	550.72353
530.595	440.90465
530.802	576.0718
531.008	544.38677
531.215	533.82578
531.422	535.93795
531.628	554.94811
531.835	645.78918
532.042	639.45067
532.248	576.0718
532.455	502.14492
532.661	571.84695
532.868	660.57945
533.074	580.2967
533.281	690.1617
533.487	552.83581
533.694	550.72353
533.9	685.93553
534.107	628.88674
534.313	664.80534
534.52	586.63414
534.726	658.46652
534.933	681.7094
535.139	728.19928
535.345	628.88674
535.552	753.55959
535.758	626.77399
535.965	736.65255
536.171	742.99261
536.377	795.83004
536.584	669.03129
536.79	685.93553
536.996	707.06685
537.203	835.99052
537.409	711.29325
537.615	781.03494
537.821	647.90204
538.028	823.3079
538.234	652.12779
538.44	812.73931
538.646	783.14849
538.853	829.64917
539.059	673.25728
539.265	785.26206
539.471	814.85301
539.677	831.76294
539.883	840.21813
540.09	852.90117
540.296	812.73931
540.502	869.81237
540.708	749.33277
540.914	823.3079
541.12	814.85301
541.326	973.40458
541.532	905.75044
541.738	897.29422
541.944	888.83812
542.15	962.83314
542.356	926.89155
542.562	1032.60768
542.768	800.0573
542.974	981.86185
543.18	816.96672
543.386	1167.94524
543.592	1015.692
543.798	983.97619
544.004	909.9786
544.21	1087.58612
544.415	871.92631
544.621	1210.24188
544.827	964.94741
545.033	1051.63825
545.239	929.0057
545.445	1195.43789
545.651	948.03341
545.856	1077.01306
546.062	1096.04466
546.268	1157.37131
546.474	1157.37131
546.679	1068.55471
546.885	1068.55471
547.091	1163.71566
547.297	1043.18016
547.502	1176.40445
547.708	943.80498
547.914	1237.73541
548.119	1085.4715
548.325	1305.41376
548.531	1112.96198
548.736	1208.12701
548.942	1026.26425
549.147	1231.3907
549.353	1125.65016
549.559	1108.73262
549.764	1087.58612
549.97	1260.99955
550.175	1256.76969
550.381	1307.52874
550.586	1178.51926
550.792	1286.37898
550.997	1138.33851
551.203	1400.58962
551.408	1239.85032
551.614	1277.91913
551.819	1229.27581
552.025	1375.20915
552.23	1189.09338
552.435	1311.75872
552.641	1322.33369
552.846	1457.69597
553.052	1237.73541
553.257	1387.89937
553.462	1275.80418
553.668	1464.04112
553.873	1354.05887
554.078	1561.33292
554.283	1354.05887
554.489	1631.12754
554.694	1345.59879
554.899	1453.46586
555.105	1438.6605
555.31	1485.19163
555.515	1540.18269
555.72	1648.04711
555.925	1354.05887
556.131	1495.76687
556.336	1404.81971
556.541	1567.67796
556.746	1531.72256
556.951	1590.943
557.156	1387.89937
557.361	1679.77088
557.567	1499.99696
557.772	1734.75718
557.977	1567.67796
558.182	1605.74791
558.387	1550.75782
558.592	1738.9868
558.797	1567.67796
559.002	1734.75718
559.207	1607.86289
559.412	1802.42933
559.617	1675.54108
559.822	1815.1174
560.027	1595.17298
560.232	1709.37915
560.437	1557.10288
560.642	1738.9868
560.847	1612.09285
561.051	1802.42933
561.256	1554.98786
561.461	1694.57509
561.666	1730.52754
561.871	1796.08524
562.076	1783.39695
562.281	1901.81463
562.485	1800.31464
562.69	1840.49304
562.895	1745.33121
563.1	1798.19994
563.305	1738.9868
563.509	1939.87406
563.714	1912.38688
563.919	1918.73016
564.123	1903.92909
564.328	1903.92909
564.533	1857.40976
564.737	2005.41636
564.942	1863.75345
565.147	2081.52208
565.351	1829.91994
565.556	1912.38688
565.761	1760.1347
565.965	2087.86381
566.17	1846.83685
566.374	1994.84542
566.579	1815.1174
566.784	1958.90308
566.988	1914.50131
567.193	1992.73122
567.397	1903.92909
567.602	2083.63599
567.806	2007.53052
568.011	2005.41636
568.215	2136.48148
568.42	2087.86381
568.624	2049.81245
568.828	2102.66091
569.033	2030.78592
569.237	2049.81245
569.442	2005.41636
569.646	2058.26851
569.85	2011.75884
570.055	2121.68522
570.259	2138.5952
570.463	2309.77833
570.668	2168.18642
570.872	2111.11624
571.076	2210.4568
571.281	2208.34336
571.485	2064.61048
571.689	2373.16413
571.893	2109.00242
572.098	2466.11329
572.302	2157.61831
572.506	2345.69805
572.71	2290.76089
572.914	2259.06347
573.119	2166.07282
573.323	2371.05142
573.527	2288.64779
573.731	2377.38954
573.935	2362.60046
574.139	2333.02082
574.343	2193.54905
574.547	2362.60046
574.751	2368.93869
574.955	2592.82755
575.159	2537.92315
575.364	2354.14933
575.568	2233.70405
575.772	2411.19126
575.976	2487.23519
576.18	2504.1319
576.383	2341.47234
576.587	2605.49664
576.791	2447.10264
576.995	2580.15801
577.199	2493.57154
577.403	2554.81766
577.607	2478.78656
577.811	2694.16783
578.015	2394.29073
578.219	2575.93474
578.422	2406.96619
578.626	2656.16861
578.83	2548.48231
579.034	2658.27978
579.238	2504.1319
579.442	2588.60442
579.645	2436.54079
579.849	2685.72392
580.053	2673.05766
580.257	2521.02789
580.46	2546.3705
580.664	2791.25774
580.868	2662.5021
581.071	2770.15364
581.275	2673.05766
581.479	2784.92666
581.682	2622.38809
581.886	2825.02145
582.09	2689.9459
