Data from mixed_try1_USB4F045381__14__00118.txt Node

Date: Thu Apr 03 20:00:04 EDT 2025
User: mmckonesweet
Spectrometer: USB4F04538
Trigger mode: 4
Integration Time (sec): 2.700000E-3
Scans to average: 1
Electric dark correction enabled: true
Nonlinearity correction enabled: true
Boxcar width: 0
XAxis mode: Wavelengths
Number of Pixels in Spectrum: 3648
>>>>>Begin Spectral Data<<<<<
345.52	-53.90568
345.736	-53.90568
345.952	-53.90568
346.168	34.5993
346.384	38.81488
346.6	11.4153
346.816	-74.97185
347.032	11.4153
347.248	-39.15785
347.464	68.32652
347.68	9.30781
347.896	-45.4785
348.112	-3.33665
348.328	-3.33665
348.544	-7.55127
348.76	62.00222
348.975	11.4153
349.191	7.20034
349.407	85.19233
349.623	-22.3017
349.839	40.92271
350.055	0.87808
350.27	64.1103
350.486	9.30781
350.702	28.27611
350.918	-20.19457
351.133	43.03055
351.349	32.49155
351.565	26.16843
351.781	-32.83698
351.996	0.87808
352.212	59.89417
352.428	80.97574
352.644	19.84552
352.859	9.30781
353.075	-32.83698
353.291	13.52282
353.506	38.81488
353.722	-24.40881
353.938	-24.40881
354.153	-13.87303
354.369	26.16843
354.584	55.67812
354.8	30.38382
355.016	-7.55127
355.231	19.84552
355.447	-3.33665
355.662	15.63036
355.878	9.30781
356.093	0.87808
356.309	-24.40881
356.524	19.84552
356.74	-5.44397
356.955	68.32652
357.171	36.70708
357.386	68.32652
357.602	-5.44397
357.817	-79.18478
358.033	-37.05092
358.248	-18.08741
358.464	19.84552
358.679	-7.55127
358.895	-28.62294
359.11	62.00222
359.325	34.5993
359.541	76.75925
359.756	11.4153
359.972	-37.05092
360.187	0.87808
360.402	24.06077
360.618	-13.87303
360.833	11.4153
361.048	43.03055
361.264	9.30781
361.479	68.32652
361.694	34.5993
361.909	76.75925
362.125	-9.65855
362.34	9.30781
362.555	5.09289
362.77	0.87808
362.986	9.30781
363.201	38.81488
363.416	36.70708
363.631	36.70708
363.847	-20.19457
364.062	34.5993
364.277	-43.37164
364.492	30.38382
364.707	7.20034
364.922	-22.3017
365.138	11.4153
365.353	51.46218
365.568	17.73793
365.783	-15.98024
365.998	53.57014
366.213	0.87808
366.428	-18.08741
366.643	9.30781
366.858	5.09289
367.073	13.52282
367.288	38.81488
367.503	11.4153
367.718	17.73793
367.933	0.87808
368.148	17.73793
368.363	11.4153
368.578	9.30781
368.793	-7.55127
369.008	-7.55127
369.223	9.30781
369.438	-7.55127
369.653	-13.87303
369.868	-13.87303
370.083	59.89417
370.298	-53.90568
370.513	-20.19457
370.728	9.30781
370.943	-37.05092
371.157	47.24632
371.372	53.57014
371.587	-3.33665
371.802	-37.05092
372.017	51.46218
372.232	-20.19457
372.446	53.57014
372.661	51.46218
372.876	-5.44397
373.091	87.30066
373.306	38.81488
373.52	55.67812
373.735	40.92271
373.95	5.09289
374.165	26.16843
374.379	-24.40881
374.594	68.32652
374.809	-41.26476
375.023	57.78613
375.238	30.38382
375.453	36.70708
375.667	57.78613
375.882	28.27611
376.097	5.09289
376.311	32.49155
376.526	70.43467
376.741	-20.19457
376.955	-64.43909
377.17	47.24632
377.384	93.62577
377.599	19.84552
377.813	38.81488
378.028	53.57014
378.242	53.57014
378.457	85.19233
378.672	-7.55127
378.886	45.13842
379.101	93.62577
379.315	53.57014
379.53	-15.98024
379.744	13.52282
379.958	80.97574
380.173	43.03055
380.387	13.52282
380.602	19.84552
380.816	-3.33665
381.031	30.38382
381.245	64.1103
381.459	19.84552
381.674	21.95313
381.888	0.87808
382.103	32.49155
382.317	34.5993
382.531	-5.44397
382.746	21.95313
382.96	51.46218
383.174	38.81488
383.388	68.32652
383.603	-20.19457
383.817	-74.97185
384.031	13.52282
384.246	-47.58533
384.46	0.87808
384.674	19.84552
384.888	-37.05092
385.103	19.84552
385.317	-3.33665
385.531	87.30066
385.745	26.16843
385.959	68.32652
386.174	-13.87303
386.388	19.84552
386.602	13.52282
386.816	-5.44397
387.03	53.57014
387.244	32.49155
387.458	38.81488
387.672	59.89417
387.887	9.30781
388.101	26.16843
388.315	13.52282
388.529	-53.90568
388.743	43.03055
388.957	-13.87303
389.171	-24.40881
389.385	26.16843
389.599	93.62577
389.813	53.57014
390.027	36.70708
390.241	19.84552
390.455	43.03055
390.669	17.73793
390.883	45.13842
391.097	-24.40881
391.311	55.67812
391.525	93.62577
391.738	47.24632
391.952	13.52282
392.166	13.52282
392.38	55.67812
392.594	62.00222
392.808	-20.19457
393.022	-11.7658
393.236	-20.19457
393.449	30.38382
393.663	40.92271
393.877	9.30781
394.091	26.16843
394.305	-18.08741
394.518	76.75925
394.732	62.00222
394.946	30.38382
395.16	-1.2293
395.373	53.57014
395.587	26.16843
395.801	76.75925
396.015	-15.98024
396.228	2.98547
396.442	21.95313
396.656	21.95313
396.869	26.16843
397.083	51.46218
397.297	9.30781
397.51	-3.33665
397.724	5.09289
397.938	-5.44397
398.151	59.89417
398.365	-15.98024
398.578	-58.11912
398.792	26.16843
399.005	-7.55127
399.219	47.24632
399.433	43.03055
399.646	9.30781
399.86	51.46218
400.073	64.1103
400.287	34.5993
400.5	34.5993
400.714	-41.26476
400.927	-7.55127
401.141	-3.33665
401.354	106.2766
401.567	28.27611
401.781	-30.72997
401.994	38.81488
402.208	13.52282
402.421	80.97574
402.635	-13.87303
402.848	70.43467
403.061	30.38382
403.275	-7.55127
403.488	13.52282
403.701	-20.19457
403.915	112.60231
404.128	2.98547
404.341	59.89417
404.555	45.13842
404.768	-15.98024
404.981	9.30781
405.195	24.06077
405.408	-5.44397
405.621	-5.44397
405.834	70.43467
406.048	34.5993
406.261	34.5993
406.474	30.38382
406.687	15.63036
406.9	5.09289
407.114	-108.67238
407.327	-5.44397
407.54	87.30066
407.753	-15.98024
407.966	76.75925
408.179	51.46218
408.392	85.19233
408.605	62.00222
408.819	97.84262
409.032	38.81488
409.245	-24.40881
409.458	9.30781
409.671	34.5993
409.884	-28.62294
410.097	72.54284
410.31	106.2766
410.523	11.4153
410.736	57.78613
410.949	30.38382
411.162	-11.7658
411.375	28.27611
411.588	-9.65855
411.801	102.05957
412.014	9.30781
412.227	45.13842
412.44	74.65103
412.653	13.52282
412.865	51.46218
413.078	43.03055
413.291	51.46218
413.504	-5.44397
413.717	53.57014
413.93	-11.7658
414.143	62.00222
414.356	38.81488
414.568	-11.7658
414.781	-20.19457
414.994	-26.51589
415.207	9.30781
415.42	72.54284
415.632	17.73793
415.845	49.35423
416.058	15.63036
416.271	45.13842
416.483	-30.72997
416.696	11.4153
416.909	26.16843
417.121	-51.79892
417.334	-1.2293
417.547	26.16843
417.759	59.89417
417.972	28.27611
418.185	0.87808
418.397	36.70708
418.61	116.81956
418.823	24.06077
419.035	-15.98024
419.248	17.73793
419.46	34.5993
419.673	-51.79892
419.885	68.32652
420.098	89.40901
420.311	85.19233
420.523	11.4153
420.736	9.30781
420.948	55.67812
421.161	-5.44397
421.373	9.30781
421.586	51.46218
421.798	17.73793
422.01	55.67812
422.223	34.5993
422.435	19.84552
422.648	78.86748
422.86	26.16843
423.073	0.87808
423.285	62.00222
423.497	30.38382
423.71	87.30066
423.922	19.84552
424.134	-20.19457
424.347	19.84552
424.559	-28.62294
424.771	59.89417
424.984	49.35423
425.196	26.16843
425.408	53.57014
425.621	62.00222
425.833	89.40901
426.045	30.38382
426.257	68.32652
426.47	51.46218
426.682	-15.98024
426.894	47.24632
427.106	-30.72997
427.318	28.27611
427.531	51.46218
427.743	28.27611
427.955	-37.05092
428.167	43.03055
428.379	-9.65855
428.591	15.63036
428.804	-41.26476
429.016	68.32652
429.228	-24.40881
429.44	21.95313
429.652	19.84552
429.864	76.75925
430.076	32.49155
430.288	104.16807
430.5	59.89417
430.712	34.5993
430.924	34.5993
431.136	-56.01241
431.348	34.5993
431.56	-37.05092
431.772	-9.65855
431.984	45.13842
432.196	26.16843
432.408	64.1103
432.62	-37.05092
432.832	36.70708
433.044	-53.90568
433.256	-24.40881
433.468	34.5993
433.679	40.92271
433.891	30.38382
434.103	26.16843
434.315	59.89417
434.527	30.38382
434.739	47.24632
434.95	47.24632
435.162	-13.87303
435.374	26.16843
435.586	55.67812
435.798	-91.82295
436.009	21.95313
436.221	-18.08741
436.433	9.30781
436.645	0.87808
436.856	38.81488
437.068	49.35423
437.28	11.4153
437.491	9.30781
437.703	0.87808
437.915	17.73793
438.126	53.57014
438.338	26.16843
438.55	21.95313
438.761	47.24632
438.973	57.78613
439.184	36.70708
439.396	26.16843
439.608	45.13842
439.819	7.20034
440.031	0.87808
440.242	-11.7658
440.454	28.27611
440.665	51.46218
440.877	-7.55127
441.088	34.5993
441.3	13.52282
441.511	-5.44397
441.723	51.46218
441.934	9.30781
442.146	2.98547
442.357	0.87808
442.569	85.19233
442.78	38.81488
442.991	38.81488
443.203	-34.94396
443.414	28.27611
443.626	-24.40881
443.837	7.20034
444.048	30.38382
444.26	59.89417
444.471	76.75925
444.682	-7.55127
444.894	78.86748
445.105	51.46218
445.316	72.54284
445.528	30.38382
445.739	43.03055
445.95	36.70708
446.161	30.38382
446.373	45.13842
446.584	7.20034
446.795	43.03055
447.006	-3.33665
447.217	-7.55127
447.429	70.43467
447.64	-18.08741
447.851	74.65103
448.062	51.46218
448.273	70.43467
448.484	9.30781
448.695	57.78613
448.907	-13.87303
449.118	9.30781
449.329	26.16843
449.54	9.30781
449.751	0.87808
449.962	-15.98024
450.173	11.4153
450.384	15.63036
450.595	34.5993
450.806	11.4153
451.017	28.27611
451.228	38.81488
451.439	15.63036
451.65	-5.44397
451.861	36.70708
452.072	-26.51589
452.283	43.03055
452.494	51.46218
452.705	45.13842
452.915	-18.08741
453.126	127.36306
453.337	5.09289
453.548	76.75925
453.759	26.16843
453.97	-3.33665
454.181	-5.44397
454.391	34.5993
454.602	55.67812
454.813	-32.83698
455.024	53.57014
455.235	43.03055
455.445	123.1456
455.656	-3.33665
455.867	85.19233
456.078	-11.7658
456.288	80.97574
456.499	13.52282
456.71	-24.40881
456.921	-66.54569
457.131	-49.69214
457.342	53.57014
457.553	7.20034
457.763	19.84552
457.974	49.35423
458.184	104.16807
458.395	26.16843
458.606	15.63036
458.816	-34.94396
459.027	0.87808
459.237	30.38382
459.448	59.89417
459.659	78.86748
459.869	34.5993
460.08	5.09289
460.29	34.5993
460.501	30.38382
460.711	24.06077
460.922	0.87808
461.132	-20.19457
461.343	-5.44397
461.553	51.46218
461.764	36.70708
461.974	13.52282
462.184	21.95313
462.395	34.5993
462.605	-56.01241
462.816	-15.98024
463.026	-39.15785
463.236	-11.7658
463.447	34.5993
463.657	45.13842
463.867	64.1103
464.078	34.5993
464.288	76.75925
464.498	28.27611
464.709	53.57014
464.919	59.89417
465.129	34.5993
465.339	72.54284
465.55	-1.2293
465.76	59.89417
465.97	85.19233
466.18	34.5993
466.391	36.70708
466.601	78.86748
466.811	-7.55127
467.021	-34.94396
467.231	28.27611
467.441	30.38382
467.651	43.03055
467.862	-9.65855
468.072	72.54284
468.282	-7.55127
468.492	49.35423
468.702	137.90711
468.912	2.98547
469.122	34.5993
469.332	15.63036
469.542	19.84552
469.752	38.81488
469.962	-20.19457
470.172	2.98547
470.382	-1.2293
470.592	68.32652
470.802	70.43467
471.012	-1.2293
471.222	59.89417
471.432	19.84552
471.642	55.67812
471.852	68.32652
472.062	-9.65855
472.272	21.95313
472.482	-9.65855
472.691	0.87808
472.901	118.92822
473.111	68.32652
473.321	-13.87303
473.531	-7.55127
473.741	15.63036
473.95	32.49155
474.16	62.00222
474.37	-62.33245
474.58	-39.15785
474.79	59.89417
474.999	53.57014
475.209	43.03055
475.419	13.52282
475.628	7.20034
475.838	51.46218
476.048	28.27611
476.258	43.03055
476.467	68.32652
476.677	70.43467
476.886	24.06077
477.096	76.75925
477.306	26.16843
477.515	21.95313
477.725	76.75925
477.935	19.84552
478.144	45.13842
478.354	95.73419
478.563	17.73793
478.773	5.09289
478.982	11.4153
479.192	51.46218
479.401	-49.69214
479.611	59.89417
479.82	36.70708
480.03	85.19233
480.239	62.00222
480.449	51.46218
480.658	-53.90568
480.868	51.46218
481.077	47.24632
481.287	-41.26476
481.496	-7.55127
481.705	-15.98024
481.915	129.47183
482.124	64.1103
482.333	-58.11912
482.543	26.16843
482.752	-7.55127
482.961	43.03055
483.171	93.62577
483.38	68.32652
483.589	9.30781
483.799	43.03055
484.008	72.54284
484.217	62.00222
484.426	34.5993
484.636	43.03055
484.845	40.92271
485.054	59.89417
485.263	-5.44397
485.472	32.49155
485.682	-7.55127
485.891	114.71092
486.1	104.16807
486.309	95.73419
486.518	66.2184
486.727	72.54284
486.936	21.95313
487.146	93.62577
487.355	38.81488
487.564	36.70708
487.773	9.30781
487.982	45.13842
488.191	85.19233
488.4	104.16807
488.609	45.13842
488.818	80.97574
489.027	9.30781
489.236	36.70708
489.445	72.54284
489.654	78.86748
489.863	13.52282
490.072	114.71092
490.281	89.40901
490.49	9.30781
490.698	53.57014
490.907	53.57014
491.116	59.89417
491.325	102.05957
491.534	104.16807
491.743	89.40901
491.952	-13.87303
492.16	93.62577
492.369	5.09289
492.578	129.47183
492.787	80.97574
492.996	118.92822
493.204	7.20034
493.413	83.08402
493.622	34.5993
493.831	93.62577
494.039	38.81488
494.248	121.0369
494.457	59.89417
494.665	0.87808
494.874	30.38382
495.083	152.66967
495.291	45.13842
495.5	102.05957
495.709	-1.2293
495.917	26.16843
496.126	26.16843
496.335	87.30066
496.543	28.27611
496.752	80.97574
496.96	66.2184
497.169	45.13842
497.377	74.65103
497.586	80.97574
497.794	112.60231
498.003	28.27611
498.211	68.32652
498.42	32.49155
498.628	74.65103
498.837	110.49372
499.045	102.05957
499.254	64.1103
499.462	87.30066
499.671	78.86748
499.879	55.67812
500.087	64.1103
500.296	80.97574
500.504	102.05957
500.713	95.73419
500.921	9.30781
501.129	57.78613
501.338	51.46218
501.546	38.81488
501.754	95.73419
501.962	114.71092
502.171	125.25432
502.379	45.13842
502.587	51.46218
502.795	118.92822
503.004	59.89417
503.212	87.30066
503.42	85.19233
503.628	163.21498
503.837	97.84262
504.045	68.32652
504.253	180.08857
504.461	205.40141
504.669	211.73008
504.877	59.89417
505.085	85.19233
505.294	127.36306
505.502	51.46218
505.71	97.84262
505.918	47.24632
506.126	114.71092
506.334	127.36306
506.542	78.86748
506.75	118.92822
506.958	59.89417
507.166	68.32652
507.374	76.75925
507.582	43.03055
507.79	129.47183
507.998	121.0369
508.206	76.75925
508.414	32.49155
508.622	104.16807
508.83	137.90711
509.037	144.23379
509.245	150.56067
509.453	173.76082
509.661	59.89417
509.869	89.40901
510.077	152.66967
510.285	154.77869
510.492	110.49372
510.7	146.34273
510.908	144.23379
511.116	165.32411
511.324	127.36306
511.531	55.67812
511.739	91.51738
511.947	118.92822
512.155	156.88773
512.362	196.96348
512.57	154.77869
512.778	70.43467
512.985	125.25432
513.193	203.2919
513.401	180.08857
513.608	228.60739
513.816	148.45169
514.024	152.66967
514.231	161.10588
514.439	196.96348
514.646	152.66967
514.854	137.90711
515.061	110.49372
515.269	173.76082
515.477	129.47183
515.684	118.92822
515.892	237.04651
516.099	62.00222
516.307	188.52586
516.514	169.54242
516.722	154.77869
516.929	196.96348
517.136	104.16807
517.344	220.16857
517.551	169.54242
517.759	156.88773
517.966	121.0369
518.173	152.66967
518.381	154.77869
518.588	184.30718
518.796	156.88773
519.003	135.79826
519.21	203.2919
519.418	224.38794
519.625	239.15634
519.832	203.2919
520.039	177.9793
520.247	256.03568
520.454	173.76082
520.661	194.85404
520.868	211.73008
521.076	262.36575
521.283	264.47581
521.49	245.48595
521.697	205.40141
521.904	270.8061
522.112	190.63523
522.319	196.96348
522.526	211.73008
522.733	220.16857
522.94	190.63523
523.147	211.73008
523.354	205.40141
523.561	289.79799
523.768	213.83967
523.975	173.76082
524.183	234.9367
524.39	258.14568
524.597	243.37606
524.804	215.94929
525.011	239.15634
525.218	266.58589
525.425	253.9257
525.632	232.82691
525.838	275.02639
526.045	251.81573
526.252	279.24676
526.459	213.83967
526.666	258.14568
526.873	287.68771
527.08	237.04651
527.287	224.38794
527.494	351.00409
527.701	294.01862
527.907	249.70578
528.114	355.22575
528.321	351.00409
528.528	283.46719
528.735	321.45445
528.941	243.37606
529.148	266.58589
529.355	266.58589
529.562	245.48595
529.768	270.8061
529.975	222.27825
530.182	338.33954
530.388	224.38794
530.595	334.11816
530.802	298.23931
531.008	374.22406
531.215	266.58589
531.422	338.33954
531.628	304.5705
531.835	363.66927
532.042	272.91624
532.248	418.55869
532.455	372.11307
532.661	376.33506
532.868	317.23335
533.074	332.0075
533.281	376.33506
533.487	348.89329
533.694	287.68771
533.9	306.68093
534.107	397.44606
534.313	376.33506
534.52	372.11307
534.726	365.78019
534.933	304.5705
535.139	399.55725
535.345	363.66927
535.552	439.67293
535.758	408.00217
535.965	359.44748
536.171	380.55713
536.377	446.00751
536.584	427.0042
536.79	422.78141
536.996	439.67293
537.203	397.44606
537.409	342.56099
537.615	475.57071
537.821	456.56545
538.028	365.78019
538.234	427.0042
538.44	496.6891
538.646	414.33604
538.853	477.68249
539.059	456.56545
539.265	517.80894
539.471	340.45025
539.677	570.61472
539.883	435.44996
540.09	526.25728
540.296	433.33849
540.502	500.91295
540.708	515.69689
540.914	494.57719
541.12	460.78874
541.326	541.04242
541.532	397.44606
541.738	507.24884
541.944	498.80101
542.15	488.24157
542.356	456.56545
542.562	595.96448
542.768	431.22705
542.974	528.3694
543.18	595.96448
543.386	557.94055
543.592	642.44384
543.798	566.38994
544.004	560.05288
544.21	661.45984
544.415	583.28936
544.621	549.49137
544.827	595.96448
545.033	699.49467
545.239	543.15464
545.445	695.26839
545.651	659.3469
545.856	714.28698
546.062	650.89528
546.268	726.96652
546.474	519.921
546.679	650.89528
546.885	591.73939
547.091	600.18963
547.297	638.2182
547.502	659.3469
547.708	657.23398
547.914	644.55668
548.119	682.58984
548.325	672.02469
548.531	619.20341
548.736	710.06055
548.942	600.18963
549.147	792.48349
549.353	665.68575
549.559	824.18863
549.764	640.33102
549.97	777.68849
550.175	796.71072
550.381	849.55422
550.586	811.50632
550.792	809.39263
550.997	777.68849
551.203	771.34792
551.408	781.91558
551.614	762.89398
551.819	817.84743
552.025	912.97357
552.23	752.32677
552.435	889.71896
552.641	925.6583
552.846	855.89582
553.052	813.62002
553.257	951.02856
553.462	866.46532
553.668	872.80712
553.873	809.39263
554.078	980.6285
554.283	923.54416
554.489	984.85717
554.694	957.37129
554.899	980.6285
555.105	849.55422
555.31	989.08586
555.515	965.82836
555.72	1031.37423
555.925	881.26297
556.131	963.71408
556.336	934.11494
556.541	1071.55036
556.746	1035.6032
556.951	972.17123
557.156	1099.04041
557.361	1016.57302
557.567	963.71408
557.772	1109.61373
557.977	1014.45858
558.182	1050.40478
558.387	1008.11532
558.592	1082.12336
558.797	965.82836
559.002	1175.17081
559.207	1065.20663
559.412	1088.46722
559.617	991.20022
559.822	1166.71161
560.027	906.63131
560.232	1189.97456
560.437	1003.88651
560.642	1179.40043
560.847	963.71408
561.051	1240.73153
561.256	1187.85973
561.461	1342.25001
561.666	972.17123
561.871	1236.50171
562.076	1107.49906
562.281	1325.32995
562.485	1168.8264
562.69	1225.92723
562.895	1175.17081
563.1	1274.57045
563.305	1244.96136
563.509	1412.04612
563.714	1149.7934
563.919	1350.71008
564.123	1238.61662
564.328	1278.80036
564.533	1202.66362
564.737	1342.25001
564.942	1325.32995
565.147	1314.75496
565.351	1249.1912
565.556	1327.44495
565.761	1293.60512
565.965	1344.36503
566.17	1101.15507
566.374	1450.11703
566.579	1259.76584
566.784	1244.96136
566.988	1321.09995
567.193	1386.6656
567.397	1225.92723
567.602	1450.11703
567.806	1149.7934
568.011	1551.63908
568.215	1435.31167
568.42	1407.81603
568.624	1369.74532
568.828	1388.78064
569.033	1405.70098
569.237	1530.48879
569.442	1490.303
569.646	1492.41805
569.85	1577.01925
570.055	1720.83457
570.259	1439.54177
570.463	1547.40903
570.668	1452.23208
570.872	1486.0729
571.076	1448.00198
571.281	1513.56849
571.485	1471.26755
571.689	1596.05423
571.893	1577.01925
572.098	1651.04327
572.302	1448.00198
572.506	1674.30739
572.71	1479.72775
572.914	1680.65209
573.119	1471.26755
573.323	1792.73696
573.527	1564.32919
573.731	1682.76698
573.935	1735.63835
574.139	1727.17907
574.343	1513.56849
574.547	1735.63835
574.751	1593.93924
574.955	1773.7044
575.159	1583.36425
575.364	1727.17907
575.568	1593.93924
575.772	1809.6545
575.976	1629.89381
576.18	1780.04862
576.383	1695.45629
576.587	1792.73696
576.791	1820.22782
576.995	1794.85166
577.199	1695.45629
577.403	1828.6864
577.607	1826.57176
577.811	1928.06878
578.015	1803.31045
578.219	1890.0088
578.422	1725.06424
578.626	1970.35549
578.83	1801.19576
579.034	1894.23777
579.238	1752.55675
579.442	2038.00902
579.645	1792.73696
579.849	1991.49793
580.053	1894.23777
580.257	1923.83999
580.46	1835.03028
580.664	2008.41142
580.868	2029.5527
581.071	2008.41142
581.275	1890.0088
581.479	2054.92133
581.682	1794.85166
581.886	2092.97237
582.09	1987.26949
582.293	2092.97237
582.497	1811.76917
582.7	2139.47591
582.904	2073.94715
583.107	2141.58962
583.311	2080.28895
583.515	2249.37773
