Data from mixed_try1_USB4F045381__9__00113.txt Node

Date: Thu Apr 03 19:59:34 EDT 2025
User: mmckonesweet
Spectrometer: USB4F04538
Trigger mode: 4
Integration Time (sec): 2.700000E-3
Scans to average: 1
Electric dark correction enabled: true
Nonlinearity correction enabled: true
Boxcar width: 0
XAxis mode: Wavelengths
Number of Pixels in Spectrum: 3648
>>>>>Begin Spectral Data<<<<<
345.52	41.97663
345.736	41.97663
345.952	41.97663
346.168	-88.66349
346.384	33.54542
346.6	-69.70555
346.816	-59.17246
347.032	-42.31821
347.248	111.54801
347.464	-33.89048
347.68	25.11459
347.896	-33.89048
348.112	20.89932
348.328	25.11459
348.544	46.19237
348.76	-14.92664
348.975	25.11459
349.191	-21.24814
349.407	-71.81209
349.623	-2.28298
349.839	-42.31821
350.055	8.25407
350.27	-21.24814
350.486	-21.24814
350.702	-46.53192
350.918	-10.71218
351.133	-25.46235
351.349	-33.89048
351.565	-46.53192
351.781	-17.03383
351.996	-33.89048
352.212	37.76098
352.428	-33.89048
352.644	-67.59898
352.859	16.68414
353.075	50.4082
353.291	-42.31821
353.506	-29.67646
353.722	-17.03383
353.938	-33.89048
354.153	-6.49763
354.369	96.7884
354.584	27.22227
354.8	-8.60492
355.016	-48.63874
355.231	-54.95905
355.447	-40.21131
355.662	-10.71218
355.878	10.36155
356.093	58.84015
356.309	-33.89048
356.524	52.51615
356.74	16.68414
356.955	-59.17246
357.171	54.62413
357.386	-92.87609
357.602	-21.24814
357.817	-8.60492
358.033	20.89932
358.248	-17.03383
358.464	16.68414
358.679	-54.95905
358.895	12.46906
359.11	4.03918
359.325	-0.17561
359.541	-54.95905
359.756	-4.39031
359.972	39.86879
360.187	-59.17246
360.402	-52.8523
360.618	-21.24814
360.833	12.46906
361.048	-65.49239
361.264	-10.71218
361.479	41.97663
361.694	-38.10439
361.909	-8.60492
362.125	-0.17561
362.34	-42.31821
362.555	-14.92664
362.77	50.4082
362.986	67.27246
363.201	-25.46235
363.416	-23.35526
363.631	25.11459
363.847	-63.38577
364.062	-35.99745
364.277	25.11459
364.492	-25.46235
364.707	44.08449
364.922	37.76098
365.138	-44.42508
365.353	-59.17246
365.568	29.32996
365.783	-40.21131
365.998	4.03918
366.213	75.70514
366.428	-4.39031
366.643	-17.03383
366.858	-31.78348
367.073	1.93177
367.288	-4.39031
367.503	67.27246
367.718	4.03918
367.933	-25.46235
368.148	-48.63874
368.363	-0.17561
368.578	-76.0251
368.793	113.65661
369.008	41.97663
369.223	16.68414
369.438	-63.38577
369.653	1.93177
369.868	71.48875
370.083	10.36155
370.298	-2.28298
370.513	-17.03383
370.728	35.65319
370.943	-33.89048
371.157	-31.78348
371.372	-0.17561
371.587	-59.17246
371.802	-25.46235
372.017	33.54542
372.232	12.46906
372.446	-21.24814
372.661	16.68414
372.876	-31.78348
373.091	18.79172
373.306	8.25407
373.52	-10.71218
373.735	35.65319
373.95	-31.78348
374.165	16.68414
374.379	-63.38577
374.594	-17.03383
374.809	-65.49239
375.023	-10.71218
375.238	-50.74553
375.453	-8.60492
375.667	-21.24814
375.882	8.25407
376.097	25.11459
376.311	1.93177
376.526	-33.89048
376.741	-23.35526
376.955	10.36155
377.17	-57.06577
377.384	-6.49763
377.599	25.11459
377.813	-38.10439
378.028	4.03918
378.242	4.03918
378.457	-8.60492
378.672	-46.53192
378.886	-19.141
379.101	50.4082
379.315	37.76098
379.53	-46.53192
379.744	4.03918
379.958	-25.46235
380.173	8.25407
380.387	-19.141
380.602	-17.03383
380.816	58.84015
381.031	25.11459
381.245	39.86879
381.459	-31.78348
381.674	-90.7698
381.888	18.79172
382.103	-0.17561
382.317	-63.38577
382.531	-33.89048
382.746	12.46906
382.96	-6.49763
383.174	-0.17561
383.388	33.54542
383.603	-65.49239
383.817	-10.71218
384.031	-31.78348
384.246	-118.14944
384.46	54.62413
384.674	-6.49763
384.888	29.32996
385.103	56.73213
385.317	-17.03383
385.531	92.57157
385.745	-35.99745
385.959	-8.60492
386.174	-17.03383
386.388	52.51615
386.602	-27.56942
386.816	-25.46235
387.03	-67.59898
387.244	-19.141
387.458	-2.28298
387.672	37.76098
387.887	18.79172
388.101	-12.81942
388.315	-80.238
388.529	16.68414
388.743	-50.74553
388.957	52.51615
389.171	-33.89048
389.385	14.57659
389.599	29.32996
389.813	12.46906
390.027	-17.03383
390.241	-48.63874
390.455	16.68414
390.669	-65.49239
390.883	-40.21131
391.097	-38.10439
391.311	-14.92664
391.525	-44.42508
391.738	-25.46235
391.952	-0.17561
392.166	52.51615
392.38	-92.87609
392.594	16.68414
392.808	-8.60492
393.022	16.68414
393.236	23.00695
393.449	41.97663
393.663	-33.89048
393.877	6.14661
394.091	-59.17246
394.305	-6.49763
394.518	-8.60492
394.732	37.76098
394.946	41.97663
395.16	-29.67646
395.373	33.54542
395.587	-48.63874
395.801	14.57659
396.015	-71.81209
396.228	-2.28298
396.442	29.32996
396.656	-23.35526
396.869	41.97663
397.083	8.25407
397.297	-52.8523
397.51	23.00695
397.724	8.25407
397.938	25.11459
398.151	-14.92664
398.365	-59.17246
398.578	25.11459
398.792	-0.17561
399.005	18.79172
399.219	4.03918
399.433	-126.57304
399.646	-48.63874
399.86	-31.78348
400.073	-8.60492
400.287	4.03918
400.5	71.48875
400.714	92.57157
400.927	14.57659
401.141	46.19237
401.354	-27.56942
401.567	-65.49239
401.781	8.25407
401.994	-4.39031
402.208	-33.89048
402.421	65.16435
402.635	27.22227
402.848	1.93177
403.061	-2.28298
403.275	-0.17561
403.488	-12.81942
403.701	77.81336
403.915	-33.89048
404.128	-33.89048
404.341	1.93177
404.555	-2.28298
404.768	8.25407
404.981	8.25407
405.195	-0.17561
405.408	-21.24814
405.621	35.65319
405.834	29.32996
406.048	-63.38577
406.261	10.36155
406.474	-25.46235
406.687	18.79172
406.9	-23.35526
407.114	-38.10439
407.327	44.08449
407.54	-8.60492
407.753	4.03918
407.966	-2.28298
408.179	-4.39031
408.392	-17.03383
408.605	20.89932
408.819	-76.0251
409.032	-4.39031
409.245	-76.0251
409.458	77.81336
409.671	4.03918
409.884	-0.17561
410.097	50.4082
410.31	39.86879
410.523	-31.78348
410.736	-25.46235
410.949	4.03918
411.162	-46.53192
411.375	-42.31821
411.588	-8.60492
411.801	27.22227
412.014	-4.39031
412.227	-61.27913
412.44	-38.10439
412.653	8.25407
412.865	14.57659
413.078	-33.89048
413.291	-67.59898
413.504	-50.74553
413.717	-0.17561
413.93	-63.38577
414.143	4.03918
414.356	-17.03383
414.568	-0.17561
414.781	-0.17561
414.994	54.62413
415.207	-84.4508
415.42	1.93177
415.632	-14.92664
415.845	4.03918
416.058	12.46906
416.271	8.25407
416.483	-50.74553
416.696	16.68414
416.909	-23.35526
417.121	27.22227
417.334	-21.24814
417.547	44.08449
417.759	-17.03383
417.972	67.27246
418.185	-2.28298
418.397	4.03918
418.61	39.86879
418.823	12.46906
419.035	-14.92664
419.248	69.38059
419.46	29.32996
419.673	41.97663
419.885	-92.87609
420.098	-4.39031
420.311	-97.08857
420.523	25.11459
420.736	-21.24814
420.948	-46.53192
421.161	16.68414
421.373	54.62413
421.586	-29.67646
421.798	41.97663
422.01	-0.17561
422.223	-25.46235
422.435	-21.24814
422.648	-52.8523
422.86	-0.17561
423.073	-73.91861
423.285	27.22227
423.497	29.32996
423.71	-61.27913
423.922	60.94819
424.134	16.68414
424.347	4.03918
424.559	12.46906
424.771	35.65319
424.984	-8.60492
425.196	29.32996
425.408	4.03918
425.621	54.62413
425.833	29.32996
426.045	33.54542
426.257	16.68414
426.47	-59.17246
426.682	50.4082
426.894	-40.21131
427.106	-33.89048
427.318	-17.03383
427.531	-14.92664
427.743	-21.24814
427.955	-44.42508
428.167	71.48875
428.379	14.57659
428.591	14.57659
428.804	41.97663
429.016	-80.238
429.228	-90.7698
429.44	-14.92664
429.652	-25.46235
429.864	16.68414
430.076	77.81336
430.288	-12.81942
430.5	-57.06577
430.712	-57.06577
430.924	-48.63874
431.136	10.36155
431.348	-48.63874
431.56	-12.81942
431.772	-19.141
431.984	16.68414
432.196	31.43768
432.408	-6.49763
432.62	1.93177
432.832	-42.31821
433.044	27.22227
433.256	33.54542
433.468	-42.31821
433.679	1.93177
433.891	39.86879
434.103	-29.67646
434.315	-63.38577
434.527	41.97663
434.739	-8.60492
434.95	41.97663
435.162	4.03918
435.374	1.93177
435.586	44.08449
435.798	-40.21131
436.009	18.79172
436.221	90.46319
436.433	-48.63874
436.645	6.14661
436.856	20.89932
437.068	-92.87609
437.28	31.43768
437.491	35.65319
437.703	-25.46235
437.915	1.93177
438.126	-73.91861
438.338	35.65319
438.55	27.22227
438.761	16.68414
438.973	58.84015
439.184	16.68414
439.396	-17.03383
439.608	-6.49763
439.819	-25.46235
440.031	54.62413
440.242	-59.17246
440.454	-4.39031
440.665	-17.03383
440.877	-10.71218
441.088	-4.39031
441.3	8.25407
441.511	-38.10439
441.723	-23.35526
441.934	-17.03383
442.146	10.36155
442.357	-8.60492
442.569	33.54542
442.78	-25.46235
442.991	-63.38577
443.203	-0.17561
443.414	-8.60492
443.626	-0.17561
443.837	33.54542
444.048	35.65319
444.26	-33.89048
444.471	-50.74553
444.682	-65.49239
444.894	18.79172
445.105	-80.238
445.316	-38.10439
445.528	-54.95905
445.739	-59.17246
445.95	-88.66349
446.161	-31.78348
446.373	-23.35526
446.584	-109.72541
446.795	-54.95905
447.006	25.11459
447.217	33.54542
447.429	-52.8523
447.64	16.68414
447.851	1.93177
448.062	18.79172
448.273	-8.60492
448.484	12.46906
448.695	33.54542
448.907	-14.92664
449.118	-63.38577
449.329	25.11459
449.54	-23.35526
449.751	-0.17561
449.962	27.22227
450.173	-25.46235
450.384	-12.81942
450.595	50.4082
450.806	16.68414
451.017	-35.99745
451.228	27.22227
451.439	27.22227
451.65	-27.56942
451.861	-14.92664
452.072	-48.63874
452.283	-14.92664
452.494	-0.17561
452.705	-10.71218
452.915	-12.81942
453.126	-8.60492
453.337	-50.74553
453.548	63.05626
453.759	-0.17561
453.97	-8.60492
454.181	-48.63874
454.391	-4.39031
454.602	-33.89048
454.813	-63.38577
455.024	-0.17561
455.235	-59.17246
455.445	33.54542
455.656	27.22227
455.867	-92.87609
456.078	27.22227
456.288	-4.39031
456.499	-17.03383
456.71	-0.17561
456.921	71.48875
457.131	101.00532
457.342	20.89932
457.553	77.81336
457.763	54.62413
457.974	-14.92664
458.184	105.22233
458.395	-38.10439
458.606	-4.39031
458.816	27.22227
459.027	-21.24814
459.237	-8.60492
459.448	-19.141
459.659	-63.38577
459.869	8.25407
460.08	-8.60492
460.29	-17.03383
460.501	-12.81942
460.711	-0.17561
460.922	20.89932
461.132	12.46906
461.343	25.11459
461.553	-14.92664
461.764	79.92161
461.974	41.97663
462.184	-12.81942
462.395	16.68414
462.605	8.25407
462.816	-8.60492
463.026	18.79172
463.236	52.51615
463.447	-17.03383
463.657	-21.24814
463.867	8.25407
464.078	-21.24814
464.288	75.70514
464.498	-31.78348
464.709	-19.141
464.919	84.13817
465.129	12.46906
465.339	1.93177
465.55	-8.60492
465.76	-27.56942
465.97	-0.17561
466.18	50.4082
466.391	25.11459
466.601	29.32996
466.811	50.4082
467.021	-21.24814
467.231	-65.49239
467.441	-38.10439
467.651	-27.56942
467.862	-118.14944
468.072	-54.95905
468.282	18.79172
468.492	-17.03383
468.702	29.32996
468.912	-35.99745
469.122	-0.17561
469.332	-12.81942
469.542	-42.31821
469.752	6.14661
469.962	14.57659
470.172	-29.67646
470.382	-57.06577
470.592	-33.89048
470.802	79.92161
471.012	8.25407
471.222	-27.56942
471.432	-2.28298
471.642	-33.89048
471.852	52.51615
472.062	-29.67646
472.272	23.00695
472.482	-29.67646
472.691	-40.21131
472.901	-10.71218
473.111	-54.95905
473.321	8.25407
473.531	-42.31821
473.741	18.79172
473.95	-14.92664
474.16	12.46906
474.37	-17.03383
474.58	-61.27913
474.79	-25.46235
474.999	12.46906
475.209	4.03918
475.419	58.84015
475.628	25.11459
475.838	67.27246
476.048	-59.17246
476.258	25.11459
476.467	-57.06577
476.677	50.4082
476.886	58.84015
477.096	84.13817
477.306	10.36155
477.515	25.11459
477.725	4.03918
477.935	-6.49763
478.144	-67.59898
478.354	-25.46235
478.563	23.00695
478.773	-14.92664
478.982	12.46906
479.192	-0.17561
479.401	-27.56942
479.611	-0.17561
479.82	-50.74553
480.03	16.68414
480.239	6.14661
480.449	-17.03383
480.658	10.36155
480.868	88.35483
481.077	79.92161
481.287	-46.53192
481.496	-10.71218
481.705	69.38059
481.915	8.25407
482.124	-14.92664
482.333	16.68414
482.543	8.25407
482.752	12.46906
482.961	52.51615
483.171	73.59693
483.38	41.97663
483.589	-0.17561
483.799	-54.95905
484.008	31.43768
484.217	8.25407
484.426	41.97663
484.636	-4.39031
484.845	35.65319
485.054	-46.53192
485.263	20.89932
485.472	-6.49763
485.682	4.03918
485.891	92.57157
486.1	50.4082
486.309	-4.39031
486.518	39.86879
486.727	12.46906
486.936	-4.39031
487.146	58.84015
487.355	33.54542
487.564	71.48875
487.773	-76.0251
487.982	39.86879
488.191	-8.60492
488.4	18.79172
488.609	10.36155
488.818	33.54542
489.027	-0.17561
489.236	27.22227
489.445	-6.49763
489.654	-4.39031
489.863	35.65319
490.072	54.62413
490.281	-25.46235
490.49	27.22227
490.698	10.36155
490.907	69.38059
491.116	-44.42508
491.325	-33.89048
491.534	20.89932
491.743	31.43768
491.952	75.70514
492.16	25.11459
492.369	-14.92664
492.578	29.32996
492.787	-8.60492
492.996	12.46906
493.204	84.13817
493.413	-33.89048
493.622	-10.71218
493.831	46.19237
494.039	67.27246
494.248	67.27246
494.457	-12.81942
494.665	41.97663
494.874	79.92161
495.083	50.4082
495.291	58.84015
495.5	58.84015
495.709	58.84015
495.917	-8.60492
496.126	-48.63874
496.335	1.93177
496.543	52.51615
496.752	96.7884
496.96	69.38059
497.169	50.4082
497.377	94.67998
497.586	101.00532
497.794	39.86879
498.003	-25.46235
498.211	-14.92664
498.42	77.81336
498.628	25.11459
498.837	-17.03383
499.045	58.84015
499.254	8.25407
499.462	67.27246
499.671	-6.49763
499.879	33.54542
500.087	4.03918
500.296	20.89932
500.504	1.93177
500.713	27.22227
500.921	103.11382
501.129	8.25407
501.338	84.13817
501.546	20.89932
501.754	14.57659
501.962	18.79172
502.171	69.38059
502.379	23.00695
502.587	50.4082
502.795	10.36155
503.004	79.92161
503.212	50.4082
503.42	33.54542
503.628	10.36155
503.837	18.79172
504.045	41.97663
504.253	54.62413
504.461	-21.24814
504.669	-0.17561
504.877	25.11459
505.085	-10.71218
505.294	143.17933
505.502	41.97663
505.71	46.19237
505.918	10.36155
506.126	84.13817
506.334	41.97663
506.542	1.93177
506.75	37.76098
506.958	113.65661
507.166	18.79172
507.374	23.00695
507.582	71.48875
507.79	67.27246
507.998	25.11459
508.206	29.32996
508.414	41.97663
508.622	-31.78348
508.83	25.11459
509.037	44.08449
509.245	12.46906
509.453	67.27246
509.661	52.51615
509.869	41.97663
510.077	29.32996
510.285	25.11459
510.492	1.93177
510.7	92.57157
510.908	69.38059
511.116	65.16435
511.324	122.09124
511.531	109.43943
511.739	69.38059
511.947	58.84015
512.155	96.7884
512.362	41.97663
512.57	115.76524
512.778	-6.49763
512.985	58.84015
513.193	75.70514
513.401	54.62413
513.608	8.25407
513.816	33.54542
514.024	46.19237
514.231	-21.24814
514.439	92.57157
514.646	113.65661
514.854	31.43768
515.061	103.11382
515.269	141.07043
515.477	75.70514
515.684	37.76098
515.892	20.89932
516.099	58.84015
516.307	117.87389
516.514	77.81336
516.722	92.57157
516.929	37.76098
517.136	39.86879
517.344	155.83321
517.551	-8.60492
517.759	69.38059
517.966	134.74384
518.173	27.22227
518.381	84.13817
518.588	94.67998
518.796	33.54542
519.003	56.73213
519.21	128.41744
519.418	103.11382
519.625	44.08449
519.832	58.84015
520.039	69.38059
520.247	119.98255
520.454	111.54801
520.661	111.54801
520.868	92.57157
521.076	33.54542
521.283	147.39721
521.49	88.35483
521.697	82.02988
521.904	105.22233
522.112	84.13817
522.319	50.4082
522.526	143.17933
522.733	164.26954
522.94	155.83321
523.147	67.27246
523.354	58.84015
523.561	130.52622
523.768	71.48875
523.975	58.84015
524.183	105.22233
524.39	27.22227
524.597	187.47118
524.804	84.13817
525.011	84.13817
525.218	149.50617
525.425	134.74384
525.632	103.11382
525.838	33.54542
526.045	176.92467
526.252	101.00532
526.459	136.85268
526.666	84.13817
526.873	189.58055
527.08	69.38059
527.287	147.39721
527.494	67.27246
527.701	227.55252
527.907	185.36184
528.114	117.87389
528.321	193.79933
528.528	103.11382
528.735	151.61516
528.941	126.30869
529.148	29.32996
529.355	96.7884
529.562	117.87389
529.768	96.7884
529.975	151.61516
530.182	103.11382
530.388	189.58055
530.595	115.76524
530.802	151.61516
531.008	179.03394
531.215	153.72418
531.422	193.79933
531.628	214.89448
531.835	134.74384
532.042	111.54801
532.248	202.23715
532.455	124.19996
532.661	198.0182
532.868	145.28826
533.074	132.63502
533.281	56.73213
533.487	189.58055
533.694	160.05133
533.9	206.45618
534.107	75.70514
534.313	155.83321
534.52	257.09068
534.726	219.11374
534.933	84.13817
535.139	176.92467
535.345	181.14322
535.552	225.4428
535.758	235.99161
535.965	225.4428
536.171	227.55252
536.377	198.0182
536.584	267.64093
536.79	273.97131
536.996	113.65661
537.203	244.431
537.409	153.72418
537.615	311.95708
537.821	252.87071
538.028	219.11374
538.234	179.03394
538.44	271.86117
538.646	202.23715
538.853	286.63257
539.059	244.431
539.265	265.53084
539.471	265.53084
539.677	206.45618
539.883	235.99161
540.09	295.07378
540.296	231.77202
540.502	195.90876
540.708	305.62571
540.914	227.55252
541.12	288.74285
541.326	244.431
541.532	240.21127
541.738	221.22341
541.944	254.98069
542.15	299.2945
542.356	181.14322
542.562	307.73615
542.768	417.50302
542.974	305.62571
543.18	316.17809
543.386	303.51529
543.592	261.31072
543.798	341.50562
544.004	282.41208
544.21	311.95708
544.415	290.85314
544.621	311.95708
544.827	320.39917
545.033	409.05781
545.239	309.84661
545.445	421.72573
545.651	278.19166
545.856	396.39047
546.062	333.06283
546.268	339.39489
546.474	280.30186
546.679	341.50562
546.885	330.95217
547.091	387.9459
547.297	354.17033
547.502	349.94869
547.708	305.62571
547.914	337.28419
548.119	373.16856
548.325	371.05758
548.531	282.41208
548.736	447.06329
548.942	447.06329
549.147	371.05758
549.353	379.50161
549.559	404.83529
549.764	362.61382
549.97	423.8371
550.175	404.83529
550.381	485.0738
550.586	392.16815
550.792	466.06793
550.997	457.62127
551.203	482.96198
551.408	358.39204
551.614	447.06329
551.819	449.17485
552.025	425.9485
552.23	491.40936
552.435	413.28038
552.641	404.83529
552.846	438.61718
553.052	383.72372
553.257	535.76193
553.462	556.88439
553.668	508.30483
553.873	525.20123
554.078	533.64976
554.283	438.61718
554.489	527.31334
554.694	476.6266
554.899	578.0082
555.105	590.68313
555.31	632.93621
555.515	463.95624
555.72	603.35852
555.925	514.64087
556.131	658.29044
556.336	525.20123
556.541	548.43524
556.746	508.30483
556.951	685.75944
557.156	516.75291
557.361	582.23313
557.567	654.06461
557.772	637.1618
557.977	535.76193
558.182	654.06461
558.387	573.78333
558.592	550.54751
558.797	601.24592
559.002	582.23313
559.207	506.19285
559.412	681.53331
559.617	542.09852
559.822	679.42027
560.027	556.88439
560.232	658.29044
560.437	539.98631
560.642	599.13334
560.847	632.93621
561.051	616.03437
561.256	692.09872
561.461	713.23036
561.666	647.72597
561.871	734.3631
562.076	670.9682
562.281	709.00395
562.485	679.42027
562.69	692.09872
562.895	700.55124
563.1	717.45683
563.305	594.90821
563.509	740.70313
563.714	736.47644
563.919	810.44948
564.123	679.42027
564.328	751.27006
564.533	658.29044
564.737	797.76753
564.942	736.47644
565.147	770.29117
565.351	766.06419
565.556	831.58679
565.761	831.58679
565.965	728.02317
566.17	757.61034
566.374	835.81437
566.579	763.95071
566.784	793.54029
566.988	734.3631
567.193	801.99481
567.397	772.40468
567.602	878.09201
567.806	692.09872
568.011	859.06665
568.215	869.63621
568.42	895.00401
568.624	920.37296
568.828	810.44948
569.033	761.83724
569.237	1032.43147
569.442	821.01802
569.646	842.15579
569.85	793.54029
570.055	939.40039
570.259	911.91652
570.463	1019.74468
570.668	988.02869
570.872	983.8
571.076	933.05785
571.281	983.8
571.485	884.43395
571.689	1019.74468
571.893	979.57133
572.098	1026.08805
572.302	852.72501
572.506	1013.40137
572.71	1100.09774
572.914	1127.58865
573.119	1015.5158
573.323	1026.08805
573.527	1032.43147
573.731	1089.52453
573.935	1000.71491
574.139	1047.23299
574.343	964.77122
574.547	1091.63916
574.751	1085.29528
574.955	1127.58865
575.159	1083.18066
575.364	1205.83591
575.568	1013.40137
575.772	1106.44172
575.976	1064.14935
576.18	1125.47393
576.383	1114.90044
576.587	1205.83591
576.791	1100.09774
576.995	1140.27702
577.199	1095.86844
577.403	1288.3177
577.607	1108.5564
577.811	1165.65421
578.015	1106.44172
578.219	1298.89256
578.422	1182.57266
578.626	1258.70837
578.83	1142.39176
579.034	1284.08777
579.238	1216.41025
579.442	1296.77759
579.645	1207.95077
579.849	1258.70837
580.053	1275.62793
580.257	1404.64346
580.46	1345.42254
580.664	1387.72312
580.868	1186.80231
581.071	1296.77759
581.275	1203.72105
581.479	1457.51971
581.682	1140.27702
581.886	1343.30752
582.09	1258.70837
582.293	1347.53755
582.497	1347.53755
582.7	1328.50245
