Data from mixed_try1_USB4F045381__19__00123.txt Node

Date: Thu Apr 03 20:00:45 EDT 2025
User: mmckonesweet
Spectrometer: USB4F04538
Trigger mode: 4
Integration Time (sec): 2.700000E-3
Scans to average: 1
Electric dark correction enabled: true
Nonlinearity correction enabled: true
Boxcar width: 0
XAxis mode: Wavelengths
Number of Pixels in Spectrum: 3648
>>>>>Begin Spectral Data<<<<<
345.52	-10.88778
345.736	-10.88778
345.952	-10.88778
346.168	-27.74501
346.384	18.61609
346.6	-4.56592
346.816	46.01671
347.032	-59.34802
347.248	79.74592
347.464	-25.63794
347.68	-99.37029
347.896	48.12461
348.112	-6.67324
348.328	79.74592
348.544	-19.31659
348.76	20.72369
348.975	-59.34802
349.191	-55.13461
349.407	-23.53085
349.623	20.72369
349.839	-10.88778
350.055	41.80097
350.27	24.93896
350.486	58.66448
350.702	79.74592
350.918	62.88058
351.133	29.15432
351.349	10.18593
351.565	-12.99502
351.781	37.58533
351.996	52.34049
352.212	130.35049
352.428	60.77252
352.644	54.44846
352.859	20.72369
353.075	14.40096
353.291	-12.99502
353.506	41.80097
353.722	39.69314
353.938	-27.74501
354.153	46.01671
354.369	12.29343
354.584	-34.06606
354.8	5.97099
355.016	3.86356
355.231	-4.56592
355.447	-80.41353
355.662	50.23254
355.878	37.58533
356.093	54.44846
356.309	-8.78052
356.524	-38.27997
356.74	-17.20943
356.955	77.63768
357.171	-2.45859
357.386	33.36978
357.602	75.52945
357.817	-86.73269
358.033	3.86356
358.248	46.01671
358.464	-67.77453
358.679	14.40096
358.895	-38.27997
359.11	-38.27997
359.325	29.15432
359.541	-23.53085
359.756	5.97099
359.972	-38.27997
360.187	37.58533
360.402	-78.3071
360.618	37.58533
360.833	75.52945
361.048	48.12461
361.264	-38.27997
361.479	3.86356
361.694	29.15432
361.909	-31.95906
362.125	29.15432
362.34	14.40096
362.555	29.15432
362.77	-8.78052
362.986	-38.27997
363.201	67.09678
363.416	35.47754
363.631	-12.99502
363.847	-2.45859
364.062	18.61609
364.277	8.07845
364.492	-4.56592
364.707	14.40096
364.922	54.44846
365.138	56.55646
365.353	35.47754
365.568	16.50851
365.783	3.86356
365.998	16.50851
366.213	-38.27997
366.428	35.47754
366.643	10.18593
366.858	50.23254
367.073	54.44846
367.288	-19.31659
367.503	-46.70749
367.718	62.88058
367.933	50.23254
368.148	10.18593
368.363	81.85419
368.578	35.47754
368.793	73.42125
369.008	54.44846
369.223	41.80097
369.438	29.15432
369.653	-4.56592
369.868	-4.56592
370.083	20.72369
370.298	124.02423
370.513	-38.27997
370.728	39.69314
370.943	29.15432
371.157	29.15432
371.372	-27.74501
371.587	10.18593
371.802	73.42125
372.017	5.97099
372.232	12.29343
372.446	-36.17303
372.661	67.09678
372.876	1.75615
373.091	56.55646
373.306	-31.95906
373.52	-12.99502
373.735	-29.85205
373.95	12.29343
374.165	-29.85205
374.379	3.86356
374.594	31.26204
374.809	54.44846
375.023	-4.56592
375.238	54.44846
375.453	37.58533
375.667	3.86356
375.882	14.40096
376.097	83.96248
376.311	-8.78052
376.526	-6.67324
376.741	22.83131
376.955	62.88058
377.17	29.15432
377.384	-4.56592
377.599	-12.99502
377.813	-63.56133
378.028	37.58533
378.242	105.04662
378.457	-12.99502
378.672	46.01671
378.886	71.31307
379.101	20.72369
379.315	1.75615
379.53	-40.38689
379.744	-8.78052
379.958	37.58533
380.173	90.28749
380.387	33.36978
380.602	-27.74501
380.816	-12.99502
381.031	-50.9211
381.245	8.07845
381.459	-23.53085
381.674	62.88058
381.888	73.42125
382.103	8.07845
382.317	-40.38689
382.531	-27.74501
382.746	75.52945
382.96	37.58533
383.174	5.97099
383.388	71.31307
383.603	1.75615
383.817	3.86356
384.031	-19.31659
384.246	-4.56592
384.46	-38.27997
384.674	-38.27997
384.888	8.07845
385.103	54.44846
385.317	50.23254
385.531	48.12461
385.745	-23.53085
385.959	46.01671
386.174	29.15432
386.388	-63.56133
386.602	52.34049
386.816	-38.27997
387.03	-4.56592
387.244	20.72369
387.458	-10.88778
387.672	8.07845
387.887	24.93896
388.101	20.72369
388.315	3.86356
388.529	-21.42373
388.743	22.83131
388.957	43.90883
389.171	29.15432
389.385	12.29343
389.599	46.01671
389.813	46.01671
390.027	-17.20943
390.241	69.20492
390.455	39.69314
390.669	-0.35123
390.883	8.07845
391.097	20.72369
391.311	-97.26409
391.525	-38.27997
391.738	-44.60065
391.952	64.98867
392.166	37.58533
392.38	-42.49378
392.594	22.83131
392.808	46.01671
393.022	88.17913
393.236	24.93896
393.449	-21.42373
393.663	48.12461
393.877	-27.74501
394.091	-19.31659
394.305	79.74592
394.518	62.88058
394.732	33.36978
394.946	12.29343
395.16	-8.78052
395.373	48.12461
395.587	-8.78052
395.801	46.01671
396.015	5.97099
396.228	58.66448
396.442	-38.27997
396.656	39.69314
396.869	-34.06606
397.083	20.72369
397.297	-88.83902
397.51	-12.99502
397.724	8.07845
397.938	58.66448
398.151	29.15432
398.365	10.18593
398.578	41.80097
398.792	37.58533
399.005	14.40096
399.219	16.50851
399.433	-4.56592
399.646	-36.17303
399.86	56.55646
400.073	3.86356
400.287	8.07845
400.5	37.58533
400.714	-74.09415
400.927	69.20492
401.141	41.80097
401.354	10.18593
401.567	71.31307
401.781	27.04663
401.994	-4.56592
402.208	56.55646
402.421	-2.45859
402.635	48.12461
402.848	-4.56592
403.061	29.15432
403.275	54.44846
403.488	22.83131
403.701	27.04663
403.915	46.01671
404.128	10.18593
404.341	-10.88778
404.555	58.66448
404.768	75.52945
404.981	5.97099
405.195	41.80097
405.408	71.31307
405.621	64.98867
405.834	43.90883
406.048	54.44846
406.261	24.93896
406.474	48.12461
406.687	31.26204
406.9	88.17913
407.114	20.72369
407.327	1.75615
407.54	41.80097
407.753	-4.56592
407.966	83.96248
408.179	-4.56592
408.392	-44.60065
408.605	54.44846
408.819	14.40096
409.032	79.74592
409.245	-21.42373
409.458	86.0708
409.671	12.29343
409.884	5.97099
410.097	64.98867
410.31	-12.99502
410.523	-4.56592
410.736	3.86356
410.949	46.01671
411.162	-31.95906
411.375	52.34049
411.588	58.66448
411.801	-42.49378
412.014	37.58533
412.227	22.83131
412.44	-2.45859
412.653	-0.35123
412.865	-17.20943
413.078	71.31307
413.291	41.80097
413.504	3.86356
413.717	43.90883
413.93	-6.67324
414.143	22.83131
414.356	-10.88778
414.568	20.72369
414.781	-2.45859
414.994	73.42125
415.207	-12.99502
415.42	50.23254
415.632	43.90883
415.845	50.23254
416.058	33.36978
416.271	18.61609
416.483	88.17913
416.696	71.31307
416.909	-44.60065
417.121	33.36978
417.334	62.88058
417.547	22.83131
417.759	-4.56592
417.972	12.29343
418.185	-2.45859
418.397	18.61609
418.61	31.26204
418.823	-46.70749
419.035	37.58533
419.248	-38.27997
419.46	3.86356
419.673	29.15432
419.885	46.01671
420.098	29.15432
420.311	71.31307
420.523	-29.85205
420.736	54.44846
420.948	48.12461
421.161	12.29343
421.373	71.31307
421.586	56.55646
421.798	69.20492
422.01	-38.27997
422.223	-8.78052
422.435	-12.99502
422.648	33.36978
422.86	107.15516
423.073	48.12461
423.285	-4.56592
423.497	29.15432
423.71	-4.56592
423.922	-84.62633
424.134	-61.45468
424.347	-59.34802
424.559	12.29343
424.771	24.93896
424.984	54.44846
425.196	20.72369
425.408	12.29343
425.621	12.29343
425.833	-4.56592
426.045	73.42125
426.257	52.34049
426.47	14.40096
426.682	37.58533
426.894	90.28749
427.106	37.58533
427.318	-21.42373
427.531	-19.31659
427.743	-57.24133
427.955	10.18593
428.167	29.15432
428.379	-105.68875
428.591	46.01671
428.804	31.26204
429.016	58.66448
429.228	58.66448
429.44	-34.06606
429.652	5.97099
429.864	77.63768
430.076	67.09678
430.288	96.6127
430.5	-4.56592
430.712	54.44846
430.924	-17.20943
431.136	24.93896
431.348	16.50851
431.56	46.01671
431.772	115.58952
431.984	3.86356
432.196	8.07845
432.408	12.29343
432.62	-38.27997
432.832	35.47754
433.044	-36.17303
433.256	88.17913
433.468	-19.31659
433.679	12.29343
433.891	-10.88778
434.103	20.72369
434.315	1.75615
434.527	37.58533
434.739	-53.02787
434.95	39.69314
435.162	-63.56133
435.374	-36.17303
435.586	83.96248
435.798	62.88058
436.009	37.58533
436.221	3.86356
436.433	-0.35123
436.645	79.74592
436.856	-50.9211
437.068	46.01671
437.28	50.23254
437.491	98.72115
437.703	1.75615
437.915	50.23254
438.126	54.44846
438.338	98.72115
438.55	20.72369
438.761	37.58533
438.973	54.44846
439.184	-4.56592
439.396	64.98867
439.608	46.01671
439.819	62.88058
440.031	62.88058
440.242	18.61609
440.454	-36.17303
440.665	-12.99502
440.877	18.61609
441.088	48.12461
441.3	67.09678
441.511	31.26204
441.723	56.55646
441.934	20.72369
442.146	100.82962
442.357	-44.60065
442.569	50.23254
442.78	60.77252
442.991	3.86356
443.203	-4.56592
443.414	-4.56592
443.626	52.34049
443.837	12.29343
444.048	-50.9211
444.26	94.50427
444.471	-31.95906
444.682	67.09678
444.894	71.31307
445.105	73.42125
445.316	107.15516
445.528	24.93896
445.739	-36.17303
445.95	37.58533
446.161	41.80097
446.373	96.6127
446.584	-12.99502
446.795	20.72369
447.006	-0.35123
447.217	92.39587
447.429	56.55646
447.64	1.75615
447.851	67.09678
448.062	50.23254
448.273	86.0708
448.484	62.88058
448.695	-4.56592
448.907	77.63768
449.118	3.86356
449.329	-31.95906
449.54	-46.70749
449.751	24.93896
449.962	46.01671
450.173	12.29343
450.384	-50.9211
450.595	73.42125
450.806	3.86356
451.017	37.58533
451.228	90.28749
451.439	-21.42373
451.65	24.93896
451.861	92.39587
452.072	12.29343
452.283	5.97099
452.494	92.39587
452.705	90.28749
452.915	-10.88778
453.126	31.26204
453.337	60.77252
453.548	-2.45859
453.759	58.66448
453.97	31.26204
454.181	-42.49378
454.391	126.13296
454.602	3.86356
454.813	27.04663
455.024	37.58533
455.235	35.47754
455.445	83.96248
455.656	8.07845
455.867	33.36978
456.078	12.29343
456.288	117.69816
456.499	24.93896
456.71	62.88058
456.921	117.69816
457.131	-0.35123
457.342	73.42125
457.553	83.96248
457.763	79.74592
457.974	71.31307
458.184	8.07845
458.395	22.83131
458.606	-2.45859
458.816	48.12461
459.027	71.31307
459.237	-4.56592
459.448	90.28749
459.659	22.83131
459.869	46.01671
460.08	54.44846
460.29	79.74592
460.501	96.6127
460.711	5.97099
460.922	-10.88778
461.132	39.69314
461.343	22.83131
461.553	29.15432
461.764	48.12461
461.974	33.36978
462.184	98.72115
462.395	75.52945
462.605	140.89469
462.816	39.69314
463.026	71.31307
463.236	92.39587
463.447	67.09678
463.657	62.88058
463.867	-10.88778
464.078	48.12461
464.288	96.6127
464.498	73.42125
464.709	107.15516
464.919	130.35049
465.129	134.5681
465.339	-12.99502
465.55	96.6127
465.76	29.15432
465.97	81.85419
466.18	37.58533
466.391	1.75615
466.601	24.93896
466.811	73.42125
467.021	96.6127
467.231	105.04662
467.441	37.58533
467.651	56.55646
467.862	121.91552
468.072	155.65745
468.282	105.04662
468.492	-8.78052
468.702	5.97099
468.912	46.01671
469.122	48.12461
469.332	88.17913
469.542	130.35049
469.752	111.37229
469.962	121.91552
470.172	124.02423
470.382	136.67694
470.592	56.55646
470.802	147.22146
471.012	94.50427
471.222	115.58952
471.432	92.39587
471.642	115.58952
471.852	151.43941
472.062	73.42125
472.272	100.82962
472.482	168.31207
472.691	105.04662
472.901	67.09678
473.111	115.58952
473.321	138.7858
473.531	33.36978
473.741	113.4809
473.95	206.28038
474.16	81.85419
474.37	147.22146
474.58	121.91552
474.79	132.45929
474.999	157.7665
475.209	189.40476
475.419	206.28038
475.628	189.40476
475.838	221.0476
476.048	214.71868
476.258	113.4809
476.467	221.0476
476.677	240.03545
476.886	231.59621
477.096	185.18606
477.306	231.59621
477.515	117.69816
477.725	229.48645
477.935	227.37671
478.144	292.78759
478.354	202.06136
478.563	349.77279
478.773	170.42125
478.982	307.56028
479.192	316.00221
479.401	334.99761
479.611	353.99443
479.82	273.79547
480.03	351.8836
480.239	377.21465
480.449	271.68532
480.658	429.99538
480.868	353.99443
481.077	324.44443
481.287	326.55503
481.496	417.32708
481.705	423.66115
481.915	527.13733
482.124	451.11047
482.333	391.99222
482.543	493.34525
482.752	487.00965
482.961	510.24083
483.171	531.3616
483.38	459.55694
483.589	594.73216
483.799	548.25922
484.008	563.04536
484.217	514.46487
484.426	596.84472
484.636	628.53462
484.845	525.02522
485.054	634.87293
485.263	611.63298
485.472	664.45318
485.682	768.00155
485.891	696.14886
486.1	641.21136
486.309	713.05426
486.518	799.70503
486.727	755.32078
486.936	780.68268
487.146	780.68268
487.355	789.13696
487.564	806.04598
487.773	992.08121
487.982	915.96855
488.191	918.08266
488.4	989.96684
488.609	1019.56848
488.818	831.41065
489.027	905.3981
489.236	1017.45403
489.445	1000.53871
489.654	1008.99632
489.863	1080.88983
490.072	1040.71324
490.281	1127.41242
490.49	1137.98605
490.698	1199.31511
490.907	1171.82237
491.116	1205.65967
491.325	1154.90408
491.534	1406.58225
491.743	1283.91152
491.952	1349.47632
492.16	1121.0683
492.369	1393.89199
492.578	1410.81234
492.787	1372.74161
492.996	1442.53809
493.204	1408.6973
493.413	1453.11335
493.622	1436.19294
493.831	1558.8654
494.039	1575.78549
494.248	1440.42304
494.457	1615.9703
494.665	1516.5648
494.874	1706.91182
495.083	1721.71575
495.291	1677.3035
495.5	1692.10773
495.709	1835.91138
495.917	1859.1719
496.126	1664.61404
496.335	1757.66746
496.543	1996.60726
496.752	1838.02599
496.96	1867.63013
497.169	1728.06025
497.377	2095.96703
497.586	1797.84749
497.794	2095.96703
498.003	1950.09341
498.211	2235.46516
498.42	1964.89359
498.628	2212.21799
498.837	2142.47033
499.045	2060.03017
499.254	2062.14417
499.462	2017.7489
499.671	2227.01177
499.879	2114.99156
500.087	2254.48478
500.296	2188.96978
500.504	2355.90999
500.713	2319.99109
500.921	2292.5218
501.129	2372.81202
501.338	2370.6993
501.546	2531.23553
501.754	2322.10404
501.962	2584.02931
502.171	2457.31218
502.379	2628.37029
502.587	2317.87812
502.795	2795.12668
503.004	2469.98572
503.212	2590.36406
503.42	2548.13034
503.628	2679.03901
503.837	2805.67809
504.045	2666.37251
504.253	2607.25621
504.461	2725.47887
504.669	2641.03815
504.877	2693.81601
505.085	2873.19889
505.294	2970.23432
505.502	2752.91763
505.71	2970.23432
505.918	2856.32004
506.126	2944.92372
506.334	2641.03815
506.542	2860.53984
506.75	3031.39264
506.958	3138.91534
507.166	3041.93588
507.374	3216.89591
507.582	2932.26763
507.79	3212.68132
507.998	2987.10685
508.206	3299.06706
508.414	3073.56328
508.622	3166.31647
508.83	3035.60999
509.037	3324.34529
509.245	3067.23808
509.453	3299.06706
509.661	3368.57623
509.869	3747.37133
510.077	3343.30235
510.285	3364.36409
510.492	3162.10109
510.7	3505.43214
510.908	3307.49341
511.116	3661.14342
511.324	3425.43322
511.531	3576.98782
511.739	3450.69884
511.947	3579.09208
512.155	3435.96088
512.362	3724.24019
512.57	3640.10735
512.778	3593.82135
512.985	3602.23766
513.193	3810.44428
513.401	3686.3842
513.608	3797.8311
513.816	3757.88471
514.024	3783.11483
514.231	3888.20981
514.439	3764.1925
514.646	3837.7704
514.854	3808.34213
515.061	3814.64852
515.269	3999.5558
515.477	3862.99154
515.684	3783.11483
515.892	3713.72526
516.099	4001.65612
516.307	3781.01243
516.514	4287.10545
516.722	4031.05843
516.929	4335.34118
517.136	3917.62748
517.344	4125.5384
517.551	3884.00696
517.759	4299.68978
517.966	4085.65199
518.173	4175.91043
518.381	4091.95034
518.588	4232.56442
518.796	4301.7871
519.003	4347.92254
519.21	4249.34782
519.418	4377.27601
519.625	4459.02387
519.832	4345.8257
520.039	4433.87423
520.247	4463.21517
520.454	4276.61791
520.661	4762.66279
520.868	4350.01936
521.076	4856.79932
521.283	4383.56549
521.49	4729.18095
521.697	4534.45379
521.904	4513.50391
522.112	4691.50696
522.319	4768.93999
522.526	4704.06577
522.733	4869.34737
522.94	4802.41494
523.147	4915.34984
523.354	4823.33383
523.561	5191.13037
523.768	4678.94734
523.975	5053.2905
524.183	4927.89404
524.39	5132.66521
524.597	4963.43146
524.804	5278.79384
525.011	5186.95489
525.218	5347.64335
525.425	5021.94917
525.632	4978.06258
525.838	4879.80345
526.045	4961.3412
526.252	5132.66521
526.459	5522.7813
526.666	5249.57726
526.873	5161.90007
527.08	5170.25205
527.287	5391.44338
527.494	5170.25205
527.701	5689.42489
527.907	5278.79384
528.114	5697.75311
528.321	5574.87363
528.528	5604.0389
528.735	5554.03847
528.941	5522.7813
529.148	5470.67425
529.355	5718.572
529.562	5637.36498
529.768	5733.14382
529.975	5501.94024
530.182	5778.93344
530.388	5687.34278
530.595	5703.99903
530.802	5635.28228
531.008	5916.23376
531.215	5697.75311
531.422	5903.75616
531.628	5872.55844
531.835	5849.67675
532.042	6055.50931
532.248	6215.44179
532.455	5957.81963
532.661	6155.22383
532.868	5986.92412
533.074	6067.97659
533.281	5972.37245
533.487	6236.20203
533.694	5914.15422
533.9	6337.89337
534.107	6126.14603
534.313	6346.19222
534.52	6244.50547
534.726	6402.19974
534.933	6244.50547
535.139	6294.31825
535.345	6242.42965
535.552	6541.10807
535.758	6485.14262
535.965	6534.89052
536.171	6462.33704
536.377	6586.69707
536.584	6435.38136
536.79	6735.8194
536.996	6783.43063
537.203	6648.84587
537.409	6489.28879
537.615	6816.54435
537.821	6752.3812
538.028	6833.09903
538.234	6568.04837
538.44	6787.57016
538.646	6671.62857
538.853	6611.55908
539.059	6775.15128
539.265	7064.71222
539.471	6862.0662
539.677	6758.5915
539.883	6843.44496
540.09	7023.37346
540.296	7097.77677
540.502	7027.50774
540.708	7095.71041
540.914	7139.09943
541.12	7060.57875
541.326	7114.3069
541.532	7263.01408
541.738	7456.98794
541.944	7188.67486
542.15	7217.58796
542.356	7405.41795
542.562	7454.9254
542.768	7277.46561
542.974	7613.67794
543.18	7320.81373
543.386	7626.04294
543.592	7506.4824
543.798	7741.41281
544.004	7607.49515
544.21	7722.87569
544.415	7477.61214
544.621	7675.49529
544.827	7434.29881
545.033	7988.41333
545.239	7494.10995
545.445	7910.2287
545.651	7691.9767
545.856	7774.3635
546.062	7671.37473
546.268	7700.21689
546.474	7700.21689
546.679	7681.67597
546.885	7827.89696
547.091	7901.99701
547.297	7712.57655
547.502	7959.61191
547.708	7924.63336
547.914	7759.94824
548.119	7827.89696
548.325	7990.47042
548.531	7836.13162
548.736	8194.02238
548.942	8037.77791
549.147	7895.82303
549.353	8272.10144
549.559	8350.15213
549.764	8111.8029
549.97	8029.55129
550.175	8259.77507
550.381	8284.42712
550.586	8011.04022
550.792	8563.62192
550.997	8247.44798
551.203	8415.85724
551.408	8399.43282
551.614	8444.59701
551.819	8374.79387
552.025	8555.41535
552.23	8497.96091
552.435	8567.72509
552.641	8582.08559
552.846	8742.0408
553.052	8789.18567
553.257	8774.83825
553.462	8940.80428
553.668	8756.39026
553.873	8824.02569
554.078	8655.9251
554.283	8850.66454
554.489	9096.41967
554.694	8727.69044
554.899	8957.18962
555.105	8752.29051
555.31	9088.23189
555.515	8653.87433
555.72	9049.33618
555.925	9024.76723
556.131	9098.46657
556.336	9057.52527
556.541	9080.04384
556.746	9170.09726
556.951	9149.63349
557.156	8959.23771
557.361	9184.42089
557.567	9137.35441
557.772	9456.41421
557.977	9284.66311
558.182	9080.04384
558.387	9208.97375
558.592	9147.58702
558.797	9219.20338
559.002	9480.9407
559.207	9241.7071
559.412	9552.46314
559.617	9045.24153
559.822	9493.20308
560.027	9129.16801
560.232	9403.26549
560.437	9366.46378
560.642	9401.22109
560.847	9321.47669
561.051	9636.22194
561.256	9450.28222
561.461	9875.09874
561.666	9317.38655
561.871	9670.94351
562.076	9775.08156
562.281	9817.95046
562.485	9529.98676
562.69	9697.49228
562.895	9546.33341
563.1	9679.11264
563.305	9393.04332
563.509	9748.54033
563.714	9652.56206
563.919	9854.68998
564.123	9681.15488
564.328	9824.07405
564.533	9893.46536
564.737	9879.18031
564.942	9805.70288
565.147	10101.53823
565.351	9783.24757
565.556	9973.04034
565.761	9917.95234
565.965	10085.22416
566.17	9934.27581
566.374	10066.86975
566.579	10150.47505
566.784	10075.02741
566.988	10193.28821
567.193	10311.50277
567.397	9873.05793
567.602	10236.0953
567.806	9962.83965
568.011	10566.12446
568.215	10362.44339
568.42	10370.59312
568.624	10360.40592
568.828	10062.79084
569.033	9962.83965
569.237	10244.24835
569.442	10395.04105
569.646	10274.82036
569.85	10207.55791
570.055	10557.97967
570.259	10405.22713
570.463	10480.59405
570.668	10423.56126
570.872	10256.47752
571.076	10568.16063
571.281	10364.48084
571.485	10629.23986
571.689	10443.93127
571.893	10533.54408
572.098	10743.22489
572.302	10496.88728
572.506	10731.01402
572.71	10533.54408
572.914	10804.27283
573.119	10637.38291
573.323	10977.18516
573.527	10785.95956
573.731	11129.68764
573.935	10885.65366
574.139	11062.59412
574.343	10757.47037
574.547	10946.6772
574.751	10916.16671
574.955	11314.64353
575.159	11046.32724
575.364	11109.35751
575.568	11113.42362
575.772	11003.62335
575.976	10861.24135
576.18	11017.85852
576.383	11271.969
576.587	11253.67853
