Data from mixed_try1_USB4F045381__43__00147.txt Node

Date: Thu Apr 03 20:06:10 EDT 2025
User: mmckonesweet
Spectrometer: USB4F04538
Trigger mode: 4
Integration Time (sec): 2.700000E-3
Scans to average: 1
Electric dark correction enabled: true
Nonlinearity correction enabled: true
Boxcar width: 0
XAxis mode: Wavelengths
Number of Pixels in Spectrum: 3648
>>>>>Begin Spectral Data<<<<<
345.52	11.06405
345.736	11.06405
345.952	11.06405
346.168	-37.40208
346.384	-24.75999
346.6	23.70949
346.816	-22.65289
347.032	27.92483
347.248	57.4348
347.464	-10.00976
347.68	-39.50901
347.896	36.35578
348.112	-5.79519
348.328	-45.82964
348.544	-45.82964
348.76	38.46358
348.975	-14.22423
349.191	-35.29512
349.407	-31.08114
349.623	61.65088
349.839	4.74166
350.055	-47.93647
350.27	15.2791
350.486	110.14229
350.702	-52.15005
350.918	19.49425
351.133	-20.54576
351.349	6.8491
351.565	40.5714
351.781	2.63424
351.996	27.92483
352.212	27.92483
352.428	91.16598
352.644	61.65088
352.859	-31.08114
353.075	-45.82964
353.291	2.63424
353.506	23.70949
353.722	32.14026
353.938	-28.97412
354.153	15.2791
354.369	-47.93647
354.584	-1.58052
354.8	36.35578
355.016	11.06405
355.231	40.5714
355.447	61.65088
355.662	-14.22423
355.878	-35.29512
356.093	-22.65289
356.309	27.92483
356.524	-39.50901
356.74	-31.08114
356.955	38.46358
357.171	91.16598
357.386	2.63424
357.602	27.92483
357.817	19.49425
358.033	2.63424
358.248	93.27437
358.464	-18.43861
358.679	-26.86706
358.895	-22.65289
359.11	30.03253
359.325	2.63424
359.541	19.49425
359.756	21.60186
359.972	8.95656
360.187	-43.72279
360.402	-60.57691
360.618	19.49425
360.833	-28.97412
361.048	11.06405
361.264	13.17157
361.479	-26.86706
361.694	34.24801
361.909	11.06405
362.125	23.70949
362.34	-43.72279
362.555	23.70949
362.77	-90.0677
362.986	-14.22423
363.201	8.95656
363.416	27.92483
363.631	-31.08114
363.847	46.895
364.062	30.03253
364.277	27.92483
364.492	-3.68787
364.707	19.49425
364.922	-12.11701
365.138	-1.58052
365.353	-22.65289
365.568	-20.54576
365.783	55.32679
365.998	-62.68356
366.213	19.49425
366.428	11.06405
366.643	6.8491
366.858	63.75895
367.073	21.60186
367.288	-39.50901
367.503	11.06405
367.718	8.95656
367.933	-14.22423
368.148	82.73264
368.363	57.4348
368.578	-3.68787
368.793	40.5714
369.008	13.17157
369.223	36.35578
369.438	-24.75999
369.653	23.70949
369.868	-14.22423
370.083	13.17157
370.298	-60.57691
370.513	-31.08114
370.728	-14.22423
370.943	-5.79519
371.157	17.38667
371.372	38.46358
371.587	-14.22423
371.802	-3.68787
372.017	55.32679
372.232	13.17157
372.446	-5.79519
372.661	21.60186
372.876	-45.82964
373.091	-43.72279
373.306	61.65088
373.52	-31.08114
373.735	19.49425
373.95	-3.68787
374.165	-31.08114
374.379	15.2791
374.594	21.60186
374.809	-5.79519
375.023	4.74166
375.238	171.30008
375.453	15.2791
375.667	63.75895
375.882	2.63424
376.097	63.75895
376.311	-90.0677
376.526	15.2791
376.741	-20.54576
376.955	49.00291
377.17	-28.97412
377.384	2.63424
377.599	-1.58052
377.813	27.92483
378.028	34.24801
378.242	36.35578
378.457	-5.79519
378.672	-5.79519
378.886	61.65088
379.101	13.17157
379.315	27.92483
379.53	-1.58052
379.744	55.32679
379.958	34.24801
380.173	-52.15005
380.387	89.05761
380.602	-10.00976
380.816	40.5714
381.031	49.00291
381.245	-41.61591
381.459	36.35578
381.674	11.06405
381.888	-14.22423
382.103	-14.22423
382.317	-28.97412
382.531	19.49425
382.746	2.63424
382.96	13.17157
383.174	46.895
383.388	36.35578
383.603	19.49425
383.817	86.94927
384.031	19.49425
384.246	72.19148
384.46	46.895
384.674	-52.15005
384.888	27.92483
385.103	-14.22423
385.317	78.51611
385.531	-5.79519
385.745	2.63424
385.959	-43.72279
386.174	51.11085
386.388	36.35578
386.602	15.2791
386.816	-5.79519
387.03	-14.22423
387.244	36.35578
387.458	11.06405
387.672	46.895
387.887	65.86705
388.101	23.70949
388.315	36.35578
388.529	-47.93647
388.743	23.70949
388.957	23.70949
389.171	-71.10991
389.385	-18.43861
389.599	-56.36353
389.813	-1.58052
390.027	2.63424
390.241	40.5714
390.455	6.8491
390.669	-1.58052
390.883	11.06405
391.097	15.2791
391.311	-28.97412
391.525	13.17157
391.738	-37.40208
391.952	-35.29512
392.166	19.49425
392.38	11.06405
392.594	36.35578
392.808	-26.86706
393.022	44.78711
393.236	70.08331
393.449	-20.54576
393.663	61.65088
393.877	-39.50901
394.091	70.08331
394.305	49.00291
394.518	-5.79519
394.732	57.4348
394.946	-1.58052
395.16	-14.22423
395.373	-24.75999
395.587	32.14026
395.801	30.03253
396.015	-26.86706
396.228	11.06405
396.442	21.60186
396.656	17.38667
396.869	89.05761
397.083	-18.43861
397.297	95.38278
397.51	4.74166
397.724	-31.08114
397.938	30.03253
398.151	-37.40208
398.365	27.92483
398.578	27.92483
398.792	17.38667
399.005	-37.40208
399.219	59.54283
399.433	-22.65289
399.646	-1.58052
399.86	-41.61591
400.073	57.4348
400.287	27.92483
400.5	8.95656
400.714	53.21881
400.927	30.03253
401.141	116.46812
401.354	-37.40208
401.567	-60.57691
401.781	6.8491
401.994	-14.22423
402.208	51.11085
402.421	19.49425
402.635	-58.47023
402.848	-5.79519
403.061	21.60186
403.275	11.06405
403.488	-10.00976
403.701	2.63424
403.915	17.38667
404.128	63.75895
404.341	67.97517
404.555	-22.65289
404.768	34.24801
404.981	-20.54576
405.195	-5.79519
405.408	30.03253
405.621	70.08331
405.834	13.17157
406.048	82.73264
406.261	-5.79519
406.474	32.14026
406.687	34.24801
406.9	55.32679
407.114	27.92483
407.327	-41.61591
407.54	-14.22423
407.753	-26.86706
407.966	59.54283
408.179	23.70949
408.392	-31.08114
408.605	25.81715
408.819	-10.00976
409.032	11.06405
409.245	-39.50901
409.458	-64.79019
409.671	120.68545
409.884	15.2791
410.097	78.51611
410.31	82.73264
410.523	25.81715
410.736	23.70949
410.949	46.895
411.162	46.895
411.375	27.92483
411.588	2.63424
411.801	-1.58052
412.014	80.62436
412.227	-56.36353
412.44	-1.58052
412.653	84.84094
412.865	-10.00976
413.078	53.21881
413.291	-20.54576
413.504	-28.97412
413.717	116.46812
413.93	-22.65289
414.143	44.78711
414.356	11.06405
414.568	36.35578
414.781	49.00291
414.994	0.52684
415.207	57.4348
415.42	11.06405
415.632	2.63424
415.845	-28.97412
416.058	84.84094
416.271	-31.08114
416.483	19.49425
416.696	89.05761
416.909	21.60186
417.121	-12.11701
417.334	61.65088
417.547	59.54283
417.759	-14.22423
417.972	53.21881
418.185	-77.42941
418.397	19.49425
418.61	44.78711
418.823	55.32679
419.035	44.78711
419.248	55.32679
419.46	-35.29512
419.673	53.21881
419.885	89.05761
420.098	36.35578
420.311	42.67924
420.523	38.46358
420.736	53.21881
420.948	53.21881
421.161	53.21881
421.373	82.73264
421.586	-12.11701
421.798	61.65088
422.01	-10.00976
422.223	-12.11701
422.435	42.67924
422.648	27.92483
422.86	76.40788
423.073	103.81665
423.285	97.49122
423.497	70.08331
423.71	4.74166
423.922	61.65088
424.134	86.94927
424.347	108.03372
424.559	38.46358
424.771	82.73264
424.984	23.70949
425.196	-22.65289
425.408	89.05761
425.621	15.2791
425.833	53.21881
426.045	-3.68787
426.257	89.05761
426.47	-3.68787
426.682	-12.11701
426.894	19.49425
427.106	-31.08114
427.318	57.4348
427.531	-16.33143
427.743	82.73264
427.955	11.06405
428.167	-39.50901
428.379	55.32679
428.591	49.00291
428.804	2.63424
429.016	38.46358
429.228	11.06405
429.44	27.92483
429.652	-14.22423
429.864	40.5714
430.076	36.35578
430.288	93.27437
430.5	-20.54576
430.712	61.65088
430.924	23.70949
431.136	19.49425
431.348	53.21881
431.56	76.40788
431.772	6.8491
431.984	93.27437
432.196	-1.58052
432.408	120.68545
432.62	11.06405
432.832	19.49425
433.044	61.65088
433.256	36.35578
433.468	63.75895
433.679	30.03253
433.891	13.17157
434.103	27.92483
434.315	6.8491
434.527	61.65088
434.739	53.21881
434.95	74.29967
435.162	-10.00976
435.374	-39.50901
435.586	2.63424
435.798	27.92483
436.009	59.54283
436.221	-14.22423
436.433	63.75895
436.645	34.24801
436.856	97.49122
437.068	70.08331
437.28	63.75895
437.491	38.46358
437.703	27.92483
437.915	40.5714
438.126	89.05761
438.338	19.49425
438.55	78.51611
438.761	61.65088
438.973	49.00291
439.184	55.32679
439.396	27.92483
439.608	74.29967
439.819	49.00291
440.031	86.94927
440.242	30.03253
440.454	63.75895
440.665	59.54283
440.877	44.78711
441.088	89.05761
441.3	63.75895
441.511	55.32679
441.723	57.4348
441.934	51.11085
442.146	95.38278
442.357	86.94927
442.569	95.38278
442.78	65.86705
442.991	65.86705
443.203	86.94927
443.414	44.78711
443.626	61.65088
443.837	65.86705
444.048	82.73264
444.26	78.51611
444.471	44.78711
444.682	105.92518
444.894	30.03253
445.105	91.16598
445.316	44.78711
445.528	27.92483
445.739	133.33796
445.95	122.79415
446.161	72.19148
446.373	72.19148
446.584	63.75895
446.795	80.62436
447.006	103.81665
447.217	70.08331
447.429	116.46812
447.64	67.97517
447.851	131.22915
448.062	188.1743
448.273	103.81665
448.484	137.55563
448.695	2.63424
448.907	112.25088
449.118	110.14229
449.329	112.25088
449.54	78.51611
449.751	131.22915
449.962	133.33796
450.173	139.6645
450.384	154.42718
450.595	116.46812
450.806	19.49425
451.017	84.84094
451.228	158.64528
451.439	61.65088
451.65	120.68545
451.861	55.32679
452.072	103.81665
452.283	137.55563
452.494	112.25088
452.705	114.35949
452.915	158.64528
453.126	122.79415
453.337	95.38278
453.548	139.6645
453.759	158.64528
453.97	133.33796
454.181	156.53622
454.391	156.53622
454.602	209.26891
454.813	183.95562
455.024	80.62436
455.235	116.46812
455.445	143.8823
455.656	175.51851
455.867	101.70815
456.078	70.08331
456.288	95.38278
456.499	173.40929
456.71	51.11085
456.921	145.99124
457.131	152.31817
457.342	192.39306
457.553	158.64528
457.763	183.95562
457.974	183.95562
458.184	209.26891
458.395	272.56455
458.606	186.06495
458.816	179.73703
459.027	164.97259
459.237	205.04983
459.448	145.99124
459.659	112.25088
459.869	251.46407
460.08	236.69488
460.29	232.47528
460.501	192.39306
460.711	255.68401
460.922	175.51851
461.132	224.03632
461.343	224.03632
461.553	175.51851
461.764	264.12413
461.974	215.59768
462.184	251.46407
462.395	306.32919
462.605	245.1343
462.816	228.25576
463.026	257.79401
463.236	268.3443
463.447	299.99796
463.657	240.91455
463.867	302.10835
464.078	274.6747
464.288	352.76311
464.498	331.65572
464.709	295.77723
464.919	285.22573
465.129	321.10269
465.339	365.42837
465.55	392.87187
465.76	342.2092
465.97	335.87706
466.18	331.65572
466.391	458.32515
466.601	418.2068
466.811	449.87871
467.021	382.31634
467.231	426.6523
467.441	407.65029
467.651	515.34488
467.862	519.56899
468.072	568.15026
468.282	509.00883
468.492	601.95012
468.702	618.85129
468.912	642.09171
469.122	627.30218
469.332	623.07671
469.542	637.86606
469.752	639.97888
469.962	756.20138
470.172	694.9162
470.382	654.76892
470.592	857.65739
470.802	713.93477
471.012	849.20191
471.222	885.13862
471.432	992.96219
471.642	849.20191
471.852	973.93315
472.062	1007.76292
472.272	1069.08335
472.482	937.99093
472.691	1105.03195
472.901	1045.82331
473.111	1079.65631
473.321	1083.88554
473.531	1143.09668
473.741	1160.01479
473.95	1303.82752
474.16	1193.85176
474.37	1269.98806
474.58	1371.50784
474.79	1502.64077
474.999	1392.65821
475.209	1360.9327
475.419	1508.9859
475.628	1684.52939
475.838	1494.18059
476.048	1599.9317
476.258	1697.21869
476.467	1783.92563
476.677	1815.64606
476.886	1938.28829
477.096	1929.83078
477.306	2060.911
477.515	1845.2509
477.725	2035.54261
477.935	2120.09989
478.144	2101.07553
478.354	1862.16753
478.563	2194.07743
478.773	2242.68566
478.982	2348.33909
479.192	2303.96753
479.401	2377.91771
479.611	2339.8877
479.82	2394.81888
480.03	2515.21998
480.239	2791.78533
480.449	2510.99599
480.658	2804.44711
480.868	2711.58275
481.077	2878.29753
481.287	2749.57585
481.496	3002.74824
481.705	2969.00399
481.915	3200.91524
482.124	3002.74824
482.333	3245.16708
482.543	3038.59723
482.752	3129.25404
482.961	3221.98846
483.171	3451.57608
483.38	3299.94482
483.589	3398.93665
483.799	3476.83903
484.008	3651.50212
484.217	3495.78453
484.426	3695.67351
484.636	3794.5025
484.845	3977.32617
485.054	3687.26056
485.263	4157.89683
485.472	3746.14474
485.682	3907.99713
485.891	3905.8959
486.1	4172.58765
486.309	4122.21482
486.518	4118.01654
486.727	4180.98194
486.936	4438.93934
487.146	4311.04997
487.355	4575.12515
487.564	4290.07682
487.773	4529.04195
487.982	4399.11363
488.191	4660.97871
488.4	4700.75172
488.609	4799.10258
488.818	4771.90415
489.027	4671.44608
489.236	4868.12745
489.445	5189.91253
489.654	5004.01262
489.863	4951.76059
490.072	4978.93344
490.281	5169.03408
490.49	5254.62093
490.698	5185.73703
490.907	5315.13426
491.116	5659.05841
491.325	5354.77025
491.534	5656.97595
491.743	5594.49126
491.952	5536.15307
492.16	5431.93181
492.369	5696.5386
492.578	5811.01406
492.787	5904.62269
492.996	5644.48071
493.204	6018.96838
493.413	5964.92294
493.622	6097.92923
493.831	5777.71947
494.039	6187.23871
494.248	5910.86156
494.457	5919.17974
494.665	6120.77997
494.874	6274.42935
495.083	6166.47294
495.291	6386.47095
495.5	6440.39264
495.709	6475.64064
495.917	6392.69349
496.126	6573.05608
496.335	6548.18891
496.543	6403.06392
496.752	6593.77617
496.96	6780.15343
497.169	6467.3476
497.377	6691.12973
497.586	6649.7089
497.794	7022.16761
498.003	6848.44529
498.211	6885.68495
498.42	6931.1901
498.628	7220.51345
498.837	6831.89197
499.045	7268.00342
499.254	6844.30709
499.462	7024.23478
499.671	7334.05706
499.879	7226.70846
500.087	7137.89431
500.296	7608.35389
500.504	7408.34061
500.713	7369.13893
500.921	7517.65131
501.129	7593.9267
501.338	7253.55119
501.546	7692.83506
501.754	7501.15547
501.962	7641.32639
502.171	7682.53439
502.379	7754.62806
502.587	7618.65838
502.795	7925.49075
503.004	7589.80445
503.212	7978.98474
503.42	8036.57821
503.628	7888.44831
503.837	7892.56447
504.045	8053.03057
504.253	8205.15382
504.461	8353.06137
504.669	8223.64784
504.877	8447.50499
505.085	8225.70263
505.294	8334.57848
505.502	8143.49544
505.71	8468.03083
505.918	8287.33724
506.126	8488.55475
506.334	8135.27297
506.542	8734.6949
506.75	8293.49973
506.958	8486.50245
507.166	8406.44756
507.374	8728.54465
507.582	8390.02244
507.79	8779.79163
507.998	8712.1432
508.206	8951.89865
508.414	8597.29988
508.622	8775.69229
508.83	8753.14463
509.037	8857.66527
509.245	8902.73812
509.453	8949.8505
509.661	9046.09459
509.869	9236.42232
510.077	8874.0564
510.285	9136.16057
510.492	8968.28322
510.7	9355.04736
510.908	9062.47271
511.116	9187.31962
511.324	9136.16057
511.531	9312.10337
511.739	9291.65128
511.947	9350.95777
512.155	9218.00995
512.362	9479.74849
512.57	9160.71825
512.778	9457.26586
512.985	9489.96723
513.193	9508.35994
513.401	9420.47188
513.608	9620.73195
513.816	9555.35769
514.024	9430.69296
514.231	9569.65968
514.439	9677.92132
514.646	9534.92492
514.854	9951.44846
515.061	9745.30757
515.269	9849.41747
515.477	9747.34932
515.684	10067.71952
515.892	9782.05671
516.099	10004.49017
516.307	9882.07139
516.514	9851.45845
516.722	9841.2534
516.929	10110.54457
517.136	9975.93046
517.344	9961.64955
517.551	10135.01324
517.759	10177.8286
517.966	10353.1049
518.173	10173.75121
518.381	10344.95471
518.588	10216.56107
518.796	10081.99523
519.003	10511.99174
519.21	10410.15029
519.418	10277.70756
519.625	10355.14241
519.832	10648.40965
520.039	10373.47943
520.247	10518.10121
520.454	10463.11186
520.661	10917.01426
520.868	10597.51399
521.076	10786.80742
521.283	10742.03775
521.49	10735.93234
521.697	10691.15609
521.904	11083.7739
522.112	10880.39837
522.319	11219.97448
522.526	10994.30241
522.733	11165.0934
522.94	11016.67228
523.147	10874.29536
523.354	11167.12617
523.561	11406.92052
523.768	11404.88896
523.975	11410.98363
524.183	11010.57154
524.39	11191.51858
524.597	11392.69935
524.804	11488.17525
525.011	11447.54982
525.218	11614.09006
525.425	11770.41939
525.632	11484.11288
525.838	11549.10626
526.045	11605.9676
526.252	11589.72224
526.459	11557.22975
526.666	11729.81941
526.873	11910.46303
527.08	11510.51761
527.287	11914.52168
527.494	11679.06451
527.701	12060.61135
527.907	12003.8036
528.114	12149.86842
528.321	11681.09481
528.528	12180.29363
528.735	12032.20824
528.941	12056.55385
529.148	11719.66888
529.355	12190.43499
529.562	12113.35594
529.768	12271.55935
529.975	11951.04799
530.182	12279.67115
530.388	12078.86968
530.595	12401.33478
530.802	11949.01882
531.008	12322.25626
531.215	12600.00047
531.422	12618.24222
531.628	12441.88387
531.835	12729.70905
532.042	12693.23097
532.248	12370.9212
532.455	12437.82908
532.661	12800.63331
532.868	12597.97357
533.074	12683.09784
533.281	12652.69753
533.487	13017.41752
533.694	12796.58069
533.9	13088.31553
534.107	13005.26297
534.313	13250.34648
534.52	12942.46156
534.726	13104.51996
534.933	13074.13641
535.139	13009.31451
535.345	13076.16201
535.552	13323.25115
535.758	13173.38542
535.965	13523.71196
536.171	13345.5265
536.377	13327.30125
536.584	13576.35211
536.79	13357.67647
536.996	13375.90116
537.203	13264.52282
537.409	13313.12583
537.615	13600.64676
537.821	13359.70145
538.028	13578.37669
538.234	13592.5486
538.44	13570.27837
538.646	13665.4301
538.853	13786.88993
539.059	13641.13675
539.265	13896.19458
539.471	13762.59886
539.677	14248.34842
539.883	14041.92193
540.09	14157.28062
540.296	14070.25632
540.502	14203.82689
540.708	14047.99362
540.914	14230.13518
541.12	14080.37564
541.326	14424.40232
541.532	14452.7317
541.738	14390.00197
541.944	14248.34842
542.15	14499.27221
542.356	14479.0373
542.562	14400.11977
542.768	14173.47075
542.974	14343.45959
543.18	14438.56705
543.386	14717.80168
543.592	14410.23753
543.798	14946.43738
544.004	14598.42145
544.21	14849.31878
544.415	14655.07691
544.621	14754.22212
544.827	14590.32774
545.033	15009.15927
545.239	14997.01958
545.445	15233.74261
545.651	14978.81001
545.856	15330.85992
546.062	15118.41616
546.268	15035.46191
546.474	15059.74123
546.679	14847.29546
546.885	15199.34699
547.091	15268.13827
547.297	15128.53251
547.502	15288.37103
547.708	15148.76522
547.914	15041.53175
548.119	15219.5797
548.325	15312.65038
548.531	15357.16262
548.736	15413.81482
548.942	15359.18591
549.147	15371.32564
549.353	15241.8357
549.559	15925.73314
549.764	15391.55856
549.97	15521.05038
550.175	15502.84045
550.381	15881.21596
550.586	15559.49372
550.792	15852.88716
550.997	15660.66168
551.203	16192.85045
551.408	15875.14549
551.614	15828.60552
551.819	15604.00738
552.025	15915.61554
552.23	15539.26035
552.435	16026.91091
552.641	16200.94534
552.846	16229.27767
553.052	16336.5389
553.257	16399.27904
553.462	16366.8968
553.668	16083.57202
553.873	16445.82938
554.078	16423.56604
554.283	16285.94335
554.489	16532.8612
554.694	16715.03387
554.899	16668.47688
555.105	16346.65816
555.31	16565.24613
555.515	16591.5593
555.72	16830.41968
555.925	16431.66178
556.131	16879.00559
556.336	16516.66894
556.541	16779.81089
556.746	16765.64071
556.951	16617.87284
557.156	16733.25216
557.361	17026.79688
557.567	16909.37252
557.772	16941.76456
557.977	16881.03003
558.182	17113.85875
558.387	16601.67985
558.592	17030.84616
558.797	17081.46304
559.002	17034.89545
559.207	16832.44407
559.412	17156.37921
559.617	16919.49496
559.822	17101.71027
560.027	16893.17675
560.232	17065.26545
560.437	17243.44885
560.642	17253.57358
560.847	17018.69836
561.051	17300.14827
561.256	17188.77659
561.461	17656.59988
561.666	17265.72334
561.871	17668.75339
562.076	17182.70202
562.281	17508.7416
562.485	17188.77659
562.69	17557.35064
562.895	17304.19831
563.1	17553.29982
563.305	17488.48837
563.509	17691.03513
563.714	17435.83146
563.919	17518.86833
564.123	17589.7577
564.328	17723.44566
564.533	17652.54874
564.737	17470.26074
564.942	17549.24901
565.147	17934.13528
565.351	17328.49885
565.556	17389.2521
565.761	17458.10913
565.965	17533.04589
566.17	17796.37249
566.374	17903.74505
566.579	17800.42411
566.784	17701.16333
566.988	17776.1146
567.193	17897.6671
567.397	17701.16333
567.602	18323.20148
567.806	18055.70413
568.011	18371.8443
568.215	18365.76383
568.42	18219.84263
568.624	18227.94886
568.828	18402.24717
569.033	17800.42411
569.237	18402.24717
569.442	18300.90757
569.646	18201.60384
569.85	18394.13965
570.055	18384.00534
570.259	18373.87113
570.463	18611.03675
570.668	18323.20148
570.872	18238.08173
571.076	18489.40679
571.281	18355.62978
571.485	18402.24717
571.689	18459.00147
571.893	18657.66527
572.098	18647.52846
572.302	18675.91178
572.506	18560.35591
