Data from mixed_try1_USB4F045381__36__00140.txt Node

Date: Thu Apr 03 20:04:56 EDT 2025
User: mmckonesweet
Spectrometer: USB4F04538
Trigger mode: 4
Integration Time (sec): 2.700000E-3
Scans to average: 1
Electric dark correction enabled: true
Nonlinearity correction enabled: true
Boxcar width: 0
XAxis mode: Wavelengths
Number of Pixels in Spectrum: 3648
>>>>>Begin Spectral Data<<<<<
345.52	-5.79519
345.736	-5.79519
345.952	-5.79519
346.168	-18.43861
346.384	-69.00336
346.6	-16.33143
346.816	-16.33143
347.032	-16.33143
347.248	17.38667
347.464	-56.36353
347.68	15.2791
347.896	51.11085
348.112	-41.61591
348.328	61.65088
348.544	25.81715
348.76	-22.65289
348.975	-1.58052
349.191	-56.36353
349.407	-26.86706
349.623	-12.11701
349.839	67.97517
350.055	17.38667
350.27	49.00291
350.486	-10.00976
350.702	55.32679
350.918	32.14026
351.133	-1.58052
351.349	-28.97412
351.565	76.40788
351.781	-1.58052
351.996	-26.86706
352.212	-16.33143
352.428	-35.29512
352.644	-10.00976
352.859	-54.2568
353.075	23.70949
353.291	17.38667
353.506	-33.18815
353.722	38.46358
353.938	-60.57691
354.153	32.14026
354.369	67.97517
354.584	-12.11701
354.8	-14.22423
355.016	19.49425
355.231	6.8491
355.447	27.92483
355.662	-22.65289
355.878	86.94927
356.093	40.5714
356.309	25.81715
356.524	-14.22423
356.74	25.81715
356.955	-69.00336
357.171	23.70949
357.386	-54.2568
357.602	-18.43861
357.817	-1.58052
358.033	23.70949
358.248	23.70949
358.464	-18.43861
358.679	49.00291
358.895	-35.29512
359.11	0.52684
359.325	25.81715
359.541	-1.58052
359.756	-83.74867
359.972	23.70949
360.187	-1.58052
360.402	42.67924
360.618	23.70949
360.833	36.35578
361.048	17.38667
361.264	-22.65289
361.479	-16.33143
361.694	-66.89679
361.909	-43.72279
362.125	-56.36353
362.34	38.46358
362.555	-41.61591
362.77	38.46358
362.986	-52.15005
363.201	-18.43861
363.416	0.52684
363.631	30.03253
363.847	-1.58052
364.062	27.92483
364.277	15.2791
364.492	6.8491
364.707	11.06405
364.922	-35.29512
365.138	-66.89679
365.353	25.81715
365.568	30.03253
365.783	-22.65289
365.998	-52.15005
366.213	32.14026
366.428	-66.89679
366.643	82.73264
366.858	2.63424
367.073	-83.74867
367.288	-16.33143
367.503	-60.57691
367.718	2.63424
367.933	-22.65289
368.148	-39.50901
368.363	-18.43861
368.578	-50.04327
368.793	6.8491
369.008	-90.0677
369.223	34.24801
369.438	57.4348
369.653	-22.65289
369.868	-52.15005
370.083	49.00291
370.298	11.06405
370.513	15.2791
370.728	27.92483
370.943	-7.90249
371.157	0.52684
371.372	-26.86706
371.587	2.63424
371.802	0.52684
372.017	51.11085
372.232	6.8491
372.446	-14.22423
372.661	38.46358
372.876	-18.43861
373.091	-10.00976
373.306	49.00291
373.52	-1.58052
373.735	-54.2568
373.95	40.5714
374.165	-66.89679
374.379	-14.22423
374.594	-14.22423
374.809	44.78711
375.023	-26.86706
375.238	-26.86706
375.453	23.70949
375.667	2.63424
375.882	34.24801
376.097	32.14026
376.311	-77.42941
376.526	-35.29512
376.741	-10.00976
376.955	17.38667
377.17	-18.43861
377.384	23.70949
377.599	-16.33143
377.813	59.54283
378.028	-7.90249
378.242	25.81715
378.457	36.35578
378.672	49.00291
378.886	19.49425
379.101	15.2791
379.315	-7.90249
379.53	-77.42941
379.744	-73.21644
379.958	15.2791
380.173	15.2791
380.387	53.21881
380.602	-7.90249
380.816	-7.90249
381.031	27.92483
381.245	-56.36353
381.459	-5.79519
381.674	-14.22423
381.888	-22.65289
382.103	25.81715
382.317	2.63424
382.531	8.95656
382.746	-1.58052
382.96	-26.86706
383.174	15.2791
383.388	-43.72279
383.603	44.78711
383.817	-43.72279
384.031	74.29967
384.246	44.78711
384.46	2.63424
384.674	25.81715
384.888	-75.32294
385.103	-64.79019
385.317	51.11085
385.531	-98.49271
385.745	-113.23547
385.959	-16.33143
386.174	-43.72279
386.388	0.52684
386.602	-33.18815
386.816	72.19148
387.03	-60.57691
387.244	-39.50901
387.458	-1.58052
387.672	-28.97412
387.887	-1.58052
388.101	-45.82964
388.315	-56.36353
388.529	74.29967
388.743	8.95656
388.957	42.67924
389.171	-47.93647
389.385	-7.90249
389.599	21.60186
389.813	-1.58052
390.027	-52.15005
390.241	-50.04327
390.455	32.14026
390.669	23.70949
390.883	34.24801
391.097	0.52684
391.311	-1.58052
391.525	-24.75999
391.738	17.38667
391.952	-26.86706
392.166	-98.49271
392.38	-43.72279
392.594	-1.58052
392.808	38.46358
393.022	-37.40208
393.236	-24.75999
393.449	-43.72279
393.663	42.67924
393.877	-10.00976
394.091	-66.89679
394.305	-60.57691
394.518	6.8491
394.732	-1.58052
394.946	11.06405
395.16	-41.61591
395.373	-22.65289
395.587	8.95656
395.801	-5.79519
396.015	-5.79519
396.228	74.29967
396.442	-5.79519
396.656	-60.57691
396.869	15.2791
397.083	-1.58052
397.297	-5.79519
397.51	-69.00336
397.724	23.70949
397.938	-35.29512
398.151	-41.61591
398.365	42.67924
398.578	65.86705
398.792	-43.72279
399.005	27.92483
399.219	6.8491
399.433	-33.18815
399.646	-26.86706
399.86	40.5714
400.073	8.95656
400.287	-33.18815
400.5	-39.50901
400.714	30.03253
400.927	8.95656
401.141	23.70949
401.354	46.895
401.567	8.95656
401.781	-7.90249
401.994	-16.33143
402.208	0.52684
402.421	-94.28026
402.635	-33.18815
402.848	42.67924
403.061	-39.50901
403.275	-54.2568
403.488	55.32679
403.701	44.78711
403.915	51.11085
404.128	15.2791
404.341	-31.08114
404.555	-43.72279
404.768	49.00291
404.981	4.74166
405.195	57.4348
405.408	82.73264
405.621	13.17157
405.834	-56.36353
406.048	40.5714
406.261	-35.29512
406.474	32.14026
406.687	-31.08114
406.9	-20.54576
407.114	15.2791
407.327	-24.75999
407.54	-56.36353
407.753	15.2791
407.966	-5.79519
408.179	-7.90249
408.392	70.08331
408.605	25.81715
408.819	-39.50901
409.032	95.38278
409.245	40.5714
409.458	27.92483
409.671	21.60186
409.884	40.5714
410.097	-18.43861
410.31	67.97517
410.523	44.78711
410.736	-35.29512
410.949	27.92483
411.162	-26.86706
411.375	-5.79519
411.588	30.03253
411.801	-37.40208
412.014	-3.68787
412.227	40.5714
412.44	-85.85504
412.653	-22.65289
412.865	-39.50901
413.078	-37.40208
413.291	49.00291
413.504	-22.65289
413.717	17.38667
413.93	-43.72279
414.143	-10.00976
414.356	-47.93647
414.568	-26.86706
414.781	8.95656
414.994	-41.61591
415.207	30.03253
415.42	-39.50901
415.632	0.52684
415.845	34.24801
416.058	57.4348
416.271	34.24801
416.483	34.24801
416.696	-1.58052
416.909	84.84094
417.121	-31.08114
417.334	23.70949
417.547	-18.43861
417.759	-22.65289
417.972	13.17157
418.185	-60.57691
418.397	49.00291
418.61	-58.47023
418.823	-77.42941
419.035	32.14026
419.248	15.2791
419.46	-43.72279
419.673	-1.58052
419.885	-3.68787
420.098	-10.00976
420.311	19.49425
420.523	-26.86706
420.736	17.38667
420.948	19.49425
421.161	44.78711
421.373	34.24801
421.586	40.5714
421.798	15.2791
422.01	-20.54576
422.223	34.24801
422.435	42.67924
422.648	-10.00976
422.86	53.21881
423.073	15.2791
423.285	27.92483
423.497	91.16598
423.71	42.67924
423.922	11.06405
424.134	57.4348
424.347	-35.29512
424.559	17.38667
424.771	36.35578
424.984	-12.11701
425.196	-1.58052
425.408	124.90287
425.621	-14.22423
425.833	-10.00976
426.045	67.97517
426.257	30.03253
426.47	63.75895
426.682	-60.57691
426.894	-62.68356
427.106	-54.2568
427.318	32.14026
427.531	49.00291
427.743	49.00291
427.955	6.8491
428.167	49.00291
428.379	32.14026
428.591	57.4348
428.804	-10.00976
429.016	78.51611
429.228	4.74166
429.44	61.65088
429.652	53.21881
429.864	-58.47023
430.076	8.95656
430.288	21.60186
430.5	23.70949
430.712	49.00291
430.924	36.35578
431.136	8.95656
431.348	6.8491
431.56	34.24801
431.772	36.35578
431.984	42.67924
432.196	-22.65289
432.408	-20.54576
432.62	-18.43861
432.832	-52.15005
433.044	-22.65289
433.256	-52.15005
433.468	32.14026
433.679	11.06405
433.891	-43.72279
434.103	-7.90249
434.315	32.14026
434.527	34.24801
434.739	78.51611
434.95	6.8491
435.162	36.35578
435.374	40.5714
435.586	-1.58052
435.798	42.67924
436.009	23.70949
436.221	23.70949
436.433	61.65088
436.645	55.32679
436.856	36.35578
437.068	36.35578
437.28	38.46358
437.491	23.70949
437.703	11.06405
437.915	2.63424
438.126	11.06405
438.338	42.67924
438.55	-33.18815
438.761	34.24801
438.973	49.00291
439.184	23.70949
439.396	32.14026
439.608	19.49425
439.819	124.90287
440.031	32.14026
440.242	-35.29512
440.454	19.49425
440.665	40.5714
440.877	17.38667
441.088	17.38667
441.3	6.8491
441.511	15.2791
441.723	84.84094
441.934	27.92483
442.146	32.14026
442.357	32.14026
442.569	-26.86706
442.78	-16.33143
442.991	40.5714
443.203	-31.08114
443.414	49.00291
443.626	-5.79519
443.837	4.74166
444.048	59.54283
444.26	-60.57691
444.471	61.65088
444.682	25.81715
444.894	40.5714
445.105	6.8491
445.316	72.19148
445.528	-10.00976
445.739	2.63424
445.95	-43.72279
446.161	59.54283
446.373	-35.29512
446.584	19.49425
446.795	63.75895
447.006	6.8491
447.217	57.4348
447.429	25.81715
447.64	38.46358
447.851	133.33796
448.062	59.54283
448.273	-31.08114
448.484	74.29967
448.695	27.92483
448.907	-3.68787
449.118	27.92483
449.329	51.11085
449.54	74.29967
449.751	65.86705
449.962	-14.22423
450.173	91.16598
450.384	70.08331
450.595	-7.90249
450.806	74.29967
451.017	44.78711
451.228	129.12037
451.439	17.38667
451.65	40.5714
451.861	53.21881
452.072	42.67924
452.283	91.16598
452.494	2.63424
452.705	23.70949
452.915	53.21881
453.126	23.70949
453.337	74.29967
453.548	49.00291
453.759	112.25088
453.97	57.4348
454.181	55.32679
454.391	108.03372
454.602	-1.58052
454.813	82.73264
455.024	101.70815
455.235	78.51611
455.445	112.25088
455.656	95.38278
455.867	91.16598
456.078	65.86705
456.288	74.29967
456.499	101.70815
456.71	99.59967
456.921	8.95656
457.131	133.33796
457.342	82.73264
457.553	91.16598
457.763	127.01161
457.974	91.16598
458.184	80.62436
458.395	53.21881
458.606	53.21881
458.816	49.00291
459.027	61.65088
459.237	19.49425
459.448	95.38278
459.659	23.70949
459.869	91.16598
460.08	27.92483
460.29	101.70815
460.501	129.12037
460.711	116.46812
460.922	65.86705
461.132	145.99124
461.343	70.08331
461.553	152.31817
461.764	152.31817
461.974	183.95562
462.184	65.86705
462.395	38.46358
462.605	129.12037
462.816	59.54283
463.026	91.16598
463.236	179.73703
463.447	99.59967
463.657	194.50247
463.867	122.79415
464.078	211.37848
464.288	188.1743
464.498	99.59967
464.709	93.27437
464.919	158.64528
465.129	211.37848
465.339	112.25088
465.55	209.26891
465.76	175.51851
465.97	177.62776
466.18	103.81665
466.391	175.51851
466.601	200.83082
466.811	202.94032
467.021	133.33796
467.231	308.43963
467.441	188.1743
467.651	293.6669
467.862	268.3443
468.072	289.44628
468.282	200.83082
468.492	262.01407
468.702	259.90403
468.912	226.14603
469.122	281.00526
469.332	312.66058
469.542	302.10835
469.752	361.20655
469.962	243.02442
470.172	314.77108
470.382	369.65026
470.592	281.00526
470.802	380.20529
471.012	397.09419
471.222	392.87187
471.432	356.9848
471.642	361.20655
471.852	346.43071
472.062	361.20655
472.272	394.98302
472.482	439.32102
472.691	413.98415
472.901	563.92551
473.111	420.31815
473.321	481.5541
473.531	580.82481
473.741	525.90526
473.95	597.72496
474.16	593.49984
474.37	563.92551
474.58	597.72496
474.79	728.7276
474.999	614.62592
475.209	551.2516
475.419	589.27478
475.628	817.49515
475.838	692.80309
476.048	726.61431
476.258	716.048
476.467	844.97423
476.677	783.67688
476.886	950.67619
477.096	923.1918
477.306	946.44774
477.515	783.67688
477.725	1026.79287
477.935	937.99093
478.144	1056.39597
478.354	870.34086
478.563	1160.01479
478.773	1071.19793
478.982	1200.1963
479.192	1212.88546
479.401	1248.83871
479.611	1217.11521
479.82	1295.3676
480.03	1320.74745
480.239	1327.09245
480.449	1405.34847
480.658	1496.29563
480.868	1341.89751
481.077	1519.56111
481.287	1418.03876
481.496	1525.90622
481.705	1671.84
481.915	1648.57585
482.124	1608.39164
482.333	1811.41673
482.543	1737.40069
482.752	1946.7457
482.961	1843.1363
483.171	1978.46016
483.38	1756.43384
483.589	2010.17322
483.799	2101.07553
484.008	2094.73394
484.217	2012.28737
484.426	2187.73689
484.636	2094.73394
484.845	2278.61046
485.054	2069.36691
485.263	2274.38415
485.472	2339.8877
485.682	2306.08056
485.891	2367.35414
486.1	2415.94441
486.309	2491.98746
486.518	2631.36135
486.727	2506.77195
486.936	2519.44393
487.146	2654.58522
487.355	2682.02964
487.564	2720.02603
487.773	2920.48995
487.982	2804.44711
488.191	3006.96599
488.4	2950.02117
488.609	3057.57431
488.818	3049.14021
489.027	3015.40133
489.236	3009.07485
489.445	3133.46992
489.654	3091.30822
489.863	3325.22297
490.072	3236.73872
490.281	3287.30482
490.49	3215.66666
490.698	3306.26459
490.907	3276.77102
491.116	3342.07369
491.325	3184.05548
491.534	3504.20428
491.743	3373.6658
491.952	3464.20788
492.16	3434.73267
492.369	3676.74395
492.578	3624.15373
492.787	3647.29489
492.996	3672.53717
493.204	3929.00826
493.413	3941.61396
493.622	4029.83341
493.831	3630.46518
494.039	3958.42044
494.248	3840.74805
494.457	4159.99558
494.665	3939.51306
494.874	4275.39433
495.083	3983.62772
495.291	4260.7108
495.5	4294.27162
495.709	4269.10152
495.917	4084.42729
496.126	4453.60998
496.335	4285.88193
496.543	4426.36365
496.752	4397.01732
496.96	4516.47194
497.169	4340.40877
497.377	4531.13687
497.586	4466.18395
497.794	4562.55807
498.003	4397.01732
498.211	4713.30993
498.42	4539.51635
498.628	4690.28592
498.837	4539.51635
499.045	4897.40322
499.254	4880.67476
499.462	4656.7916
499.671	4838.8472
499.879	5022.81983
500.087	4985.20355
500.296	5022.81983
500.504	4905.7669
500.713	5104.29608
500.921	4914.13022
501.129	5148.15329
501.338	4874.40121
501.546	5206.61362
501.754	5014.4613
501.962	5200.35089
502.171	5031.17799
502.379	5392.31232
502.587	5202.43849
502.795	5475.71191
503.004	5244.18561
503.212	5490.30296
503.42	5323.47938
503.628	5502.80867
503.837	5398.56859
504.045	5486.13421
504.253	5748.58175
504.461	5496.55592
504.669	5429.84679
504.877	5956.60684
505.085	5709.0303
505.294	5852.62379
505.502	5459.035
505.71	5921.25922
505.918	5638.23277
506.126	6085.46398
506.334	5642.39809
506.542	6021.04673
506.75	5848.46324
506.958	5996.10494
507.166	5798.52929
507.374	5973.23866
507.582	5954.52776
507.79	6021.04673
507.998	5879.66506
508.206	6374.02524
508.414	6031.43814
508.622	6288.9571
508.83	6035.59454
509.037	6320.08415
509.245	6160.24275
509.453	6114.54823
509.661	6338.75785
509.869	6334.6083
510.077	6224.61119
510.285	6552.33367
510.492	6170.62628
510.7	6591.70427
510.908	6234.99108
511.116	6500.51753
511.324	6249.52195
511.531	6608.27886
511.739	6436.24538
511.947	6734.61171
512.155	6446.61337
512.362	6703.55418
512.57	6583.41641
512.778	6442.46624
512.985	6517.10027
513.193	6655.92261
513.401	6782.22325
513.608	6879.47885
513.816	6653.8514
514.024	6951.87065
514.231	6831.89197
514.439	6840.16881
514.646	6798.78095
514.854	6724.25978
515.061	6945.66672
515.269	6922.91725
515.477	6984.95482
515.684	7203.99246
515.892	7077.97317
516.099	6953.93858
516.307	6871.20373
516.514	7311.35365
516.722	7331.99322
516.929	7166.81505
517.136	7243.2275
517.344	7203.99246
517.551	7100.70409
517.759	7224.64348
517.966	7278.32578
518.173	7183.33923
518.381	7381.51926
518.588	7474.34679
518.796	7492.90703
519.003	7678.41397
519.21	7346.43962
519.418	7439.28377
519.625	7439.28377
519.832	7490.84487
520.039	7801.9899
520.247	7797.87192
520.454	7513.52748
520.661	7999.55567
520.868	7451.65967
521.076	8065.36898
521.283	7857.57451
521.49	7773.16227
521.697	7657.81061
521.904	7736.09215
522.112	7614.53665
522.319	8098.26787
522.526	8133.2173
522.733	8040.69142
522.94	8003.66961
523.147	8100.32388
523.354	8118.82706
523.561	8248.30405
523.768	8172.27158
523.975	8215.42847
524.183	8081.81907
524.39	8168.16094
524.597	8262.68552
524.804	8318.14792
525.011	8342.79329
525.218	8517.28505
525.425	8229.81216
525.632	8365.38242
525.838	8420.81854
526.045	8472.13577
526.252	8336.63221
526.459	8923.22292
526.666	8587.04317
526.873	8584.99177
527.08	8578.83746
527.287	8921.17452
527.494	8574.73449
527.701	8763.39384
527.907	8459.82072
528.114	8658.83033
528.321	8455.71556
528.528	8591.14591
528.735	8828.97802
528.941	8775.69229
529.148	8589.09455
529.355	8933.46465
529.562	8779.79163
529.768	9076.80266
529.975	9011.28737
530.182	8933.46465
530.388	8824.87955
530.595	9146.39324
530.802	9093.17871
531.008	9246.65083
531.215	9199.59621
531.422	9295.74183
531.628	9115.69396
531.835	9346.86811
532.042	9269.15207
532.248	9314.14848
532.455	9234.37657
532.661	9487.92351
532.868	9244.60516
533.074	9246.65083
533.281	9389.80622
533.487	9643.20066
533.694	9408.20606
533.9	9534.92492
534.107	9197.55015
534.313	9679.96358
534.52	9477.7047
534.726	9824.92454
534.933	9555.35769
535.139	9759.59949
535.345	9775.93219
535.552	9659.54035
535.758	9741.22403
535.965	9998.37047
536.171	9904.51877
536.377	9933.08559
536.584	9892.27497
536.79	10102.38789
536.996	10145.20793
537.203	9994.2906
537.409	9710.59552
537.615	9922.88348
537.821	9951.44846
538.028	10214.52264
538.234	9953.48871
538.44	10081.99523
538.646	9875.94907
538.853	10326.61602
539.059	10141.1301
539.265	10342.91713
539.471	10196.17618
539.677	10094.23099
539.883	10377.55418
540.09	10326.61602
540.296	10273.63151
540.502	10611.76555
540.708	10367.36721
540.914	10479.40597
541.12	10446.81692
541.326	10621.94487
541.532	10481.44268
541.738	10719.65074
541.944	10324.57832
542.15	10522.17413
542.356	10813.25954
542.562	10980.06633
542.768	10809.19011
542.974	11065.47464
543.18	10937.35482
543.386	10971.93119
543.592	11098.00605
543.798	10969.89738
544.004	10839.70968
544.21	11034.9739
544.415	10721.68599
544.621	11167.12617
544.827	11065.47464
545.033	11423.17271
545.239	10923.11655
545.445	11313.45818
545.651	10980.06633
545.856	11384.57274
546.062	11114.27072
546.268	11313.45818
546.474	11106.13847
546.679	10967.86355
546.885	10902.77519
547.091	11179.32256
547.297	11122.4028
547.502	11362.22377
547.708	11471.92554
547.914	11439.42427
548.119	11232.16924
548.325	11435.36144
548.531	11211.84443
548.736	11543.01354
548.942	11439.42427
549.147	11644.54799
549.353	11410.98363
549.559	11912.49236
549.764	11577.53784
549.97	11573.47629
550.175	11646.57844
550.381	12068.72624
550.586	11790.71807
550.792	12078.86968
550.997	11827.25354
551.203	11790.71807
551.408	11697.33691
551.614	11918.58029
551.819	11922.63886
552.025	11920.60958
552.23	11882.05161
552.435	12018.00612
552.641	12115.38448
552.846	12121.47004
553.052	12117.41301
553.257	12082.927
553.462	11969.31016
553.668	12101.18457
553.873	12064.66881
554.078	12119.44153
554.283	12257.36342
554.489	12176.23703
554.694	12462.15742
554.899	12368.89357
555.105	12269.53138
555.31	12541.21805
555.515	12597.97357
555.72	12628.37632
555.925	12222.88613
556.131	12407.41732
556.336	12537.1639
556.541	12664.85782
556.746	12610.13484
556.951	12875.60296
557.156	12666.88451
557.361	12569.59642
557.567	12703.36396
557.772	12871.55074
557.977	12484.45757
558.182	12595.94667
558.387	12691.20436
558.592	12660.80441
558.797	12664.85782
559.002	12600.00047
559.207	12729.70905
559.412	12677.01788
559.617	12441.88387
559.822	12608.10797
560.027	12689.17774
560.232	12826.97486
560.437	12802.65962
560.642	12991.08244
560.847	13037.67471
561.051	12895.86375
561.256	12847.23695
561.461	13118.69859
561.666	12822.92237
561.871	13185.5376
562.076	12790.5017
562.281	12893.83769
562.485	12829.00109
562.69	13116.67308
562.895	12820.89612
563.1	13043.75177
563.305	12893.83769
563.509	13124.77507
563.714	13446.7719
563.919	13023.49473
564.123	13149.08058
564.328	13092.36667
564.533	13047.80312
564.737	13307.05059
564.942	13305.0255
565.147	13582.42582
565.351	13282.74924
565.556	13240.22039
565.761	13604.69582
565.965	13424.49876
566.17	12954.61706
566.374	13377.92611
566.579	13416.39932
566.784	13266.548
566.988	13596.59769
567.193	13819.27736
567.397	13392.10062
567.602	13580.40126
567.806	13203.76556
568.011	13614.81841
568.215	13794.98686
568.42	13764.62313
568.624	13501.44039
568.828	13722.11276
569.033	13827.3741
569.237	13853.6882
569.442	13766.6474
569.646	13420.44905
569.85	13922.50745
570.055	14135.01898
570.259	13639.11228
570.463	14033.8263
570.668	13817.25317
570.872	13724.13709
571.076	13954.89191
571.281	13898.21866
571.485	13912.38717
571.689	13819.27736
571.893	13932.62766
572.098	13956.91591
572.302	13813.20478
572.506	14159.3044
572.71	13865.833
572.914	14177.51826
573.119	14161.32817
573.323	13952.8679
573.527	13936.67573
573.731	14141.09036
573.935	14274.65616
574.139	14369.76626
