Data from mixed_try1_USB4F045381__30__00134.txt Node

Date: Thu Apr 03 20:01:57 EDT 2025
User: mmckonesweet
Spectrometer: USB4F04538
Trigger mode: 4
Integration Time (sec): 2.700000E-3
Scans to average: 1
Electric dark correction enabled: true
Nonlinearity correction enabled: true
Boxcar width: 0
XAxis mode: Wavelengths
Number of Pixels in Spectrum: 3648
>>>>>Begin Spectral Data<<<<<
345.52	14.75222
345.736	14.75222
345.952	14.75222
346.168	-14.75104
346.384	-63.21022
346.6	-42.14263
346.816	50.58386
347.032	29.5056
347.248	-46.35635
347.464	-33.71489
347.68	-18.9654
347.896	4.2148
348.112	-50.56997
348.328	73.77262
348.544	37.93663
348.76	-12.64382
348.975	8.4297
349.191	-4.2147
349.407	-77.95602
349.623	-16.85823
349.839	-12.64382
350.055	-25.28676
350.27	12.64469
350.486	-16.85823
350.702	-10.53658
350.918	12.64469
351.133	-35.82187
351.349	-86.38163
351.565	29.5056
351.781	-4.2147
351.996	-50.56997
352.212	-16.85823
352.428	-21.07254
352.644	21.07496
352.859	-27.39383
353.075	-37.92881
353.291	-86.38163
353.506	-84.27527
353.722	21.07496
353.938	8.4297
354.153	46.36803
354.369	-23.17966
354.584	-25.28676
354.8	-63.21022
355.016	130.70195
355.231	-63.21022
355.447	59.01582
355.662	27.39791
355.878	-4.2147
356.093	12.64469
356.309	-12.64382
356.524	-4.2147
356.74	12.64469
356.955	-16.85823
357.171	-61.10358
357.386	-77.95602
357.602	31.61332
357.817	-29.50088
358.033	-21.07254
358.248	-0
358.464	-21.07254
358.679	-46.35635
358.895	-16.85823
359.11	-71.63655
359.325	21.07496
359.541	-0
359.756	-48.46317
359.972	-0
360.187	29.5056
360.402	-124.29169
360.618	-10.53658
360.833	-31.6079
361.048	12.64469
361.264	-29.50088
361.479	-46.35635
361.694	-33.71489
361.909	-14.75104
362.125	-61.10358
362.34	12.64469
362.555	-25.28676
362.77	-88.48797
362.986	16.85977
363.201	-4.2147
363.416	-48.46317
363.631	-37.92881
363.847	21.07496
364.062	-50.56997
364.277	-23.17966
364.492	4.2148
364.707	-0
364.922	21.07496
365.138	29.5056
365.353	52.69182
365.568	14.75222
365.783	-56.89021
365.998	-18.9654
366.213	4.2148
366.428	-10.53658
366.643	-48.46317
366.858	-12.64382
367.073	40.04444
367.288	-8.42931
367.503	-21.07254
367.718	40.04444
367.933	-10.53658
368.148	4.2148
368.363	-63.21022
368.578	50.58386
368.793	-12.64382
369.008	67.44814
369.223	16.85977
369.438	-46.35635
369.653	2.10739
369.868	-84.27527
370.083	-0
370.298	2.10739
370.513	-0
370.728	6.32224
370.943	-23.17966
371.157	-21.07254
371.372	-12.64382
371.587	-4.2147
371.802	16.85977
372.017	2.10739
372.232	14.75222
372.446	-10.53658
372.661	-54.78349
372.876	6.32224
373.091	-33.71489
373.306	-4.2147
373.52	2.10739
373.735	-25.28676
373.95	21.07496
374.165	54.79979
374.379	6.32224
374.594	-18.9654
374.809	-10.53658
375.023	-21.07254
375.238	33.72107
375.453	-21.07254
375.667	16.85977
375.882	-25.28676
376.097	-12.64382
376.311	23.18258
376.526	-86.38163
376.741	-25.28676
376.955	-10.53658
377.17	37.93663
377.384	31.61332
377.599	29.5056
377.813	-2.10736
378.028	-80.06246
378.242	-52.67674
378.457	-48.46317
378.672	-18.9654
378.886	-0
379.101	-8.42931
379.315	-21.07254
379.53	25.29023
379.744	-12.64382
379.958	12.64469
380.173	-77.95602
380.387	12.64469
380.602	12.64469
380.816	-25.28676
381.031	-56.89021
381.245	-21.07254
381.459	23.18258
381.674	21.07496
381.888	-31.6079
382.103	31.61332
382.317	25.29023
382.531	-12.64382
382.746	-8.42931
382.96	-6.32202
383.174	23.18258
383.388	37.93663
383.603	-0
383.817	-21.07254
384.031	-18.9654
384.246	-33.71489
384.46	14.75222
384.674	-44.2495
384.888	6.32224
385.103	-12.64382
385.317	27.39791
385.531	-67.42343
385.745	-18.9654
385.959	-69.53
386.174	-96.91306
386.388	-33.71489
386.602	-40.03573
386.816	-54.78349
387.03	-18.9654
387.244	-52.67674
387.458	21.07496
387.672	-42.14263
387.887	4.2148
388.101	-8.42931
388.315	23.18258
388.529	-54.78349
388.743	4.2148
388.957	31.61332
389.171	31.61332
389.385	4.2148
389.599	-29.50088
389.813	18.96735
390.027	-25.28676
390.241	63.23193
390.455	25.29023
390.669	31.61332
390.883	-61.10358
391.097	-21.07254
391.311	23.18258
391.525	46.36803
391.738	-21.07254
391.952	77.98905
392.166	-84.27527
392.38	-27.39383
392.594	29.5056
392.808	25.29023
393.022	-61.10358
393.236	12.64469
393.449	-2.10736
393.663	12.64469
393.877	50.58386
394.091	-21.07254
394.305	4.2148
394.518	-10.53658
394.732	-48.46317
394.946	42.15228
395.16	-4.2147
395.373	-21.07254
395.587	-25.28676
395.801	-4.2147
396.015	21.07496
396.228	12.64469
396.442	14.75222
396.656	-18.9654
396.869	54.79979
397.083	16.85977
397.297	-4.2147
397.51	31.61332
397.724	-12.64382
397.938	-29.50088
398.151	-21.07254
398.365	14.75222
398.578	37.93663
398.792	-44.2495
399.005	-18.9654
399.219	16.85977
399.433	-0
399.646	-27.39383
399.86	-27.39383
400.073	23.18258
400.287	46.36803
400.5	12.64469
400.714	-29.50088
400.927	-0
401.141	-86.38163
401.354	-18.9654
401.567	6.32224
401.781	71.66443
401.994	61.12386
402.208	-37.92881
402.421	21.07496
402.635	40.04444
402.848	-58.9969
403.061	-44.2495
403.275	6.32224
403.488	4.2148
403.701	-4.2147
403.915	-27.39383
404.128	-46.35635
404.341	-42.14263
404.555	-4.2147
404.768	-8.42931
404.981	-2.10736
405.195	-16.85823
405.408	-21.07254
405.621	8.4297
405.834	14.75222
406.048	12.64469
406.261	-2.10736
406.474	-21.07254
406.687	-40.03573
406.9	75.88082
407.114	77.98905
407.327	12.64469
407.54	-54.78349
407.753	-35.82187
407.966	-67.42343
408.179	-21.07254
408.392	-33.71489
408.605	27.39791
408.819	-35.82187
409.032	82.20557
409.245	-52.67674
409.458	-16.85823
409.671	-29.50088
409.884	-4.2147
410.097	-35.82187
410.31	-18.9654
410.523	-31.6079
410.736	-8.42931
410.949	-21.07254
411.162	50.58386
411.375	-4.2147
411.588	80.0973
411.801	21.07496
412.014	-50.56997
412.227	8.4297
412.44	-4.2147
412.653	-12.64382
412.865	37.93663
413.078	25.29023
413.291	56.90779
413.504	-52.67674
413.717	4.2148
413.93	8.4297
414.143	10.53718
414.356	-69.53
414.568	-58.9969
414.781	2.10739
414.994	-12.64382
415.207	-4.2147
415.42	46.36803
415.632	-101.12544
415.845	-48.46317
416.058	-8.42931
416.271	-44.2495
416.483	-50.56997
416.696	-31.6079
416.909	-42.14263
417.121	12.64469
417.334	-25.28676
417.547	12.64469
417.759	12.64469
417.972	65.34002
418.185	12.64469
418.397	31.61332
418.61	16.85977
418.823	46.36803
419.035	37.93663
419.248	50.58386
419.46	21.07496
419.673	29.5056
419.885	-52.67674
420.098	77.98905
420.311	-10.53658
420.523	56.90779
420.736	71.66443
420.948	-0
421.161	50.58386
421.373	25.29023
421.586	-12.64382
421.798	-16.85823
422.01	-54.78349
422.223	-23.17966
422.435	42.15228
422.648	-12.64382
422.86	8.4297
423.073	-18.9654
423.285	6.32224
423.497	2.10739
423.71	27.39791
423.922	-6.32202
424.134	42.15228
424.347	88.53052
424.559	-25.28676
424.771	31.61332
424.984	14.75222
425.196	-4.2147
425.408	25.29023
425.621	-42.14263
425.833	31.61332
426.045	-54.78349
426.257	42.15228
426.47	12.64469
426.682	-46.35635
426.894	31.61332
427.106	-50.56997
427.318	54.79979
427.531	16.85977
427.743	25.29023
427.955	14.75222
428.167	25.29023
428.379	12.64469
428.591	-0
428.804	-58.9969
429.016	12.64469
429.228	21.07496
429.44	21.07496
429.652	-4.2147
429.864	18.96735
430.076	-16.85823
430.288	-21.07254
430.5	-25.28676
430.712	54.79979
430.924	-37.92881
431.136	-40.03573
431.348	42.15228
431.56	-8.42931
431.772	-58.9969
431.984	29.5056
432.196	25.29023
432.408	29.5056
432.62	4.2148
432.832	8.4297
433.044	105.39804
433.256	-21.07254
433.468	-4.2147
433.679	16.85977
433.891	-25.28676
434.103	54.79979
434.315	-54.78349
434.527	33.72107
434.739	-40.03573
434.95	65.34002
435.162	48.47593
435.374	10.53718
435.586	92.74727
435.798	12.64469
436.009	4.2148
436.221	-46.35635
436.433	-0
436.645	-35.82187
436.856	-2.10736
437.068	105.39804
437.28	54.79979
437.491	-10.53658
437.703	-27.39383
437.915	-18.9654
438.126	-0
438.338	40.04444
438.55	63.23193
438.761	-29.50088
438.973	21.07496
439.184	-46.35635
439.396	14.75222
439.608	42.15228
439.819	4.2148
440.031	21.07496
440.242	21.07496
440.454	-27.39383
440.665	4.2148
440.877	-18.9654
441.088	52.69182
441.3	63.23193
441.511	63.23193
441.723	46.36803
441.934	56.90779
442.146	16.85977
442.357	-63.21022
442.569	29.5056
442.78	-23.17966
442.991	-37.92881
443.203	12.64469
443.414	-29.50088
443.626	-29.50088
443.837	12.64469
444.048	-12.64382
444.26	14.75222
444.471	48.47593
444.682	-48.46317
444.894	84.31387
445.105	-0
445.316	33.72107
445.528	46.36803
445.739	84.31387
445.95	40.04444
446.161	-4.2147
446.373	63.23193
446.584	42.15228
446.795	-16.85823
447.006	-8.42931
447.217	12.64469
447.429	-44.2495
447.64	-12.64382
447.851	-8.42931
448.062	33.72107
448.273	48.47593
448.484	-4.2147
448.695	-29.50088
448.907	-12.64382
449.118	63.23193
449.329	-14.75104
449.54	54.79979
449.751	29.5056
449.962	59.01582
450.173	4.2148
450.384	59.01582
450.595	31.61332
450.806	-2.10736
451.017	80.0973
451.228	29.5056
451.439	77.98905
451.65	48.47593
451.861	-4.2147
452.072	-0
452.283	80.0973
452.494	-12.64382
452.705	29.5056
452.915	-0
453.126	4.2148
453.337	92.74727
453.548	14.75222
453.759	40.04444
453.97	59.01582
454.181	8.4297
454.391	25.29023
454.602	69.55627
454.813	37.93663
455.024	37.93663
455.235	113.83233
455.445	-4.2147
455.656	46.36803
455.867	46.36803
456.078	40.04444
456.288	48.47593
456.499	88.53052
456.71	-40.03573
456.921	48.47593
457.131	90.63889
457.342	77.98905
457.553	92.74727
457.763	37.93663
457.974	75.88082
458.184	52.69182
458.395	-4.2147
458.606	84.31387
458.816	59.01582
459.027	23.18258
459.237	18.96735
459.448	14.75222
459.659	25.29023
459.869	82.20557
460.08	80.0973
460.29	67.44814
460.501	23.18258
460.711	63.23193
460.922	84.31387
461.132	105.39804
461.343	71.66443
461.553	67.44814
461.764	25.29023
461.974	77.98905
462.184	118.04961
462.395	99.07256
462.605	67.44814
462.816	-0
463.026	29.5056
463.236	54.79979
463.447	-4.2147
463.657	147.57295
463.867	107.50658
464.078	71.66443
464.288	73.77262
464.498	92.74727
464.709	59.01582
464.919	122.26697
465.129	118.04961
465.339	96.96411
465.55	96.96411
465.76	139.13728
465.97	54.79979
466.18	126.48442
466.391	99.07256
466.601	168.6636
466.811	130.70195
467.021	130.70195
467.231	115.94096
467.441	65.34002
467.651	166.55444
467.862	132.81075
468.072	139.13728
468.282	240.38709
468.492	160.22709
468.702	206.63197
468.912	126.48442
469.122	181.31899
469.332	156.00896
469.542	164.4453
469.752	246.71673
469.962	134.91958
470.172	191.86571
470.382	236.16742
470.592	105.39804
470.802	200.30345
471.012	177.10045
471.222	141.24617
471.432	177.10045
471.642	196.08454
471.852	223.5089
472.062	172.88198
472.272	206.63197
472.482	174.9912
472.691	265.70668
472.901	200.30345
473.111	244.60683
473.321	316.35397
473.531	364.90064
473.741	278.36751
473.95	324.7962
474.16	210.85109
474.37	426.12445
474.58	324.7962
474.79	375.45547
474.999	373.34447
475.209	324.7962
475.419	388.12183
475.628	447.23925
475.838	392.34408
476.048	373.34447
476.258	409.23374
476.467	426.12445
476.677	462.02054
476.886	516.92892
477.096	523.26513
477.306	493.69724
477.515	443.01617
477.725	552.83581
477.935	538.05013
478.144	493.69724
478.354	561.28507
478.563	721.85944
478.773	607.75981
478.982	662.69239
479.192	595.08425
479.401	738.76589
479.611	595.08425
479.82	732.42589
480.03	582.40916
480.239	713.40647
480.449	679.59635
480.658	861.3567
480.868	709.18005
481.077	992.4336
481.287	808.51194
481.496	1009.34873
481.705	941.69077
481.915	1051.63825
482.124	979.74753
482.333	1043.18016
482.543	1051.63825
482.752	1093.93002
482.961	1106.61795
483.171	1191.20821
483.38	1144.68274
483.589	1165.83045
483.799	1220.81625
484.008	1356.17389
484.217	1165.83045
484.426	1373.09412
484.636	1362.51897
484.845	1474.61638
485.054	1330.79371
485.263	1415.39495
485.472	1390.01441
485.682	1502.11201
485.891	1631.12754
486.1	1476.73143
486.309	1417.50999
486.518	1605.74791
486.727	1590.943
486.936	1891.24225
487.146	1749.5608
487.355	1908.158
487.564	1679.77088
487.773	1798.19994
487.982	1798.19994
488.191	1967.36026
488.4	1977.9316
488.609	1999.07382
488.818	1863.75345
489.027	2045.58438
489.236	2117.45765
489.445	2328.795
489.654	2117.45765
489.863	2284.42157
490.072	2178.75433
490.281	2339.35948
490.49	2328.795
490.698	2493.57154
490.907	2506.24394
491.116	2554.81766
491.325	2466.11329
491.534	2533.6994
491.743	2502.01985
491.952	2510.46799
492.16	2550.5941
492.369	2727.94142
492.578	2563.26463
492.787	2759.60109
492.996	2525.25178
493.204	2837.68193
493.413	2797.58871
493.622	2911.52454
493.831	2812.36047
494.039	3048.61307
494.248	2704.72244
494.457	2896.75743
494.665	2951.60312
494.874	3065.48106
495.083	2972.69496
495.291	3183.52859
495.5	2919.96258
495.709	3217.24713
495.917	3107.64664
496.126	3240.42616
496.335	3124.5111
496.543	3438.41727
496.752	3305.73794
496.96	3429.99526
497.169	3324.69636
497.377	3472.10242
497.586	3240.42616
497.794	3421.57297
498.003	3341.54712
498.211	3434.2063
498.42	3305.73794
498.628	3682.52815
498.837	3442.62816
499.045	3829.71305
499.254	3488.94327
499.462	3823.40709
499.671	3674.11472
499.879	3905.3706
500.087	3756.13251
500.296	3997.80552
500.504	3972.59989
500.713	3924.28093
500.921	3972.59989
501.129	4006.20674
501.338	3810.79464
501.546	4062.90637
501.754	3901.16808
501.962	4237.11006
502.171	3947.39134
502.379	4308.42845
502.587	3997.80552
502.795	4348.27201
503.004	4125.88825
503.212	4293.74728
503.42	4195.14654
503.628	4392.30054
503.837	4155.27336
504.045	4534.80294
504.253	4438.41537
504.461	4350.36883
504.669	4455.18177
504.877	4484.51959
505.085	4325.20564
505.294	4639.51884
505.502	4331.49673
505.71	4765.10395
505.918	4631.14362
506.126	4744.17874
506.334	4492.90103
506.542	4819.49887
506.75	4480.32873
506.958	4955.4187
507.166	4670.92272
507.374	4894.7895
507.582	4622.76805
507.79	4698.13532
507.998	5162.24808
508.206	5103.77391
508.414	4723.25127
508.622	5066.17376
508.83	5007.66973
509.037	5053.6387
509.245	4786.02689
509.453	5128.8365
509.661	5039.01343
509.869	5116.30562
510.077	5076.619
510.285	5237.40234
510.492	5220.704
510.7	5329.21643
510.908	5160.16003
511.116	5145.54303
511.324	5308.35357
511.531	5304.18072
511.739	5118.39416
511.947	5395.96184
512.155	5239.48952
512.362	5362.59214
512.57	5398.04725
512.778	5541.88353
512.985	5370.93513
513.193	5320.87157
513.401	5385.53445
513.608	5681.44333
513.816	5523.12863
514.024	5721.00072
514.231	5433.49557
514.439	5579.38761
514.646	5446.00512
514.854	5733.49076
515.061	5860.42457
515.269	5978.9555
515.477	5458.51382
515.684	5899.94339
515.892	5516.87657
516.099	5762.63087
516.307	5637.7121
516.514	5956.08707
516.722	6082.86695
516.929	5877.06511
517.136	5972.71894
517.344	5999.7425
517.551	5706.42794
517.759	6057.93357
517.966	6103.64218
518.173	6114.02891
518.381	5906.18243
518.588	6236.54802
518.796	5845.86285
519.003	6089.09977
519.21	6195.02527
519.418	6259.38153
519.625	6273.91048
519.832	6340.31391
520.039	6201.25428
520.247	6186.7196
520.454	6329.93995
520.661	6613.97604
520.868	6327.86509
521.076	6568.39374
521.283	6448.16851
521.49	6605.68918
521.697	6437.80062
521.904	6758.93651
522.112	6520.72755
522.319	6732.02378
522.526	6414.98919
522.733	6785.84537
522.94	6688.5412
523.147	6727.88302
523.354	6537.30848
523.561	6841.72068
523.768	6740.30503
523.975	7160.10169
524.183	6711.31905
524.39	7100.18751
524.597	7145.64136
524.804	7007.18
525.011	7077.45653
525.218	7164.23302
525.425	6961.69311
525.632	7021.65082
525.838	7077.45653
526.045	7104.32012
526.252	7193.14979
526.459	7490.32932
526.666	6992.70808
526.873	7438.76809
527.08	7189.01909
527.287	7758.23206
527.494	7263.35818
527.701	7525.38326
527.907	7449.08142
528.114	7407.82485
528.321	7469.70645
528.528	7537.75375
528.735	7224.12723
528.941	7752.05373
529.148	7451.14402
529.355	7712.91987
529.562	7395.44619
529.768	7731.4579
529.975	7387.19331
530.182	7659.35593
530.388	7449.08142
530.595	7869.41001
530.802	7667.59747
531.008	8083.3612
531.215	7830.29877
531.422	7844.70905
531.628	7686.13969
531.835	7725.27875
532.042	7922.91857
532.248	8132.70338
532.455	7918.80302
532.661	8301.20259
532.868	7957.89741
533.074	8260.11747
533.281	8050.45997
533.487	8101.86588
533.694	8124.48049
533.9	8321.74221
534.107	8054.57291
534.313	8342.27987
534.52	8317.63444
534.726	8508.56374
534.933	8128.59197
535.139	8527.03198
535.345	8621.40131
535.552	8434.67537
535.758	8321.74221
535.965	8728.03213
536.171	8479.83232
536.377	8678.82412
536.584	8596.78705
536.79	8662.41909
536.996	8537.29145
537.203	8781.32886
537.409	8584.47892
537.615	8662.41909
537.821	8832.56412
538.028	8881.73934
538.234	8769.03071
538.44	8928.85592
538.646	8826.41648
538.853	8935.00087
539.059	8656.2669
539.265	9064.0081
539.471	8961.62713
539.677	9162.25302
539.883	9160.20665
540.09	9096.76082
540.296	9207.26877
540.502	9327.95259
540.708	8904.27454
540.914	9248.18507
541.12	9307.50179
541.326	9246.13941
541.532	9370.8939
541.738	9518.06669
541.944	9174.53086
542.15	9432.22609
542.356	9422.00507
542.562	9550.76045
542.768	9587.53609
542.974	9728.46257
543.18	9464.93061
543.386	9969.30013
543.592	9656.98734
543.798	9687.62189
544.004	9714.16903
544.21	9852.98918
544.415	9628.39195
544.621	9910.13034
544.827	9624.30665
545.033	10038.65612
545.239	9734.58814
545.445	10057.01228
545.651	9785.62928
545.856	9901.96802
546.062	9908.08978
546.268	9942.77725
546.474	9887.68341
546.679	9818.29066
546.885	9883.60195
547.091	10073.32792
547.297	9824.41424
547.502	10216.05146
547.708	10071.28851
547.914	10211.97459
548.119	9867.27556
548.325	10003.9802
548.531	10193.62797
548.736	10322.03118
548.942	10146.7371
549.147	10040.69575
549.353	10032.53714
549.559	10590.89698
549.764	10527.7743
549.97	10287.38797
550.175	10358.70802
550.381	10723.21241
550.586	10544.06518
550.792	10662.15017
550.997	10427.97487
551.203	10767.98451
551.408	10582.7528
551.614	10639.75793
551.819	10735.42355
552.025	10798.50764
552.23	10548.13778
552.435	11095.46464
552.641	10574.60841
552.846	11014.13031
553.052	10698.78882
553.257	11241.82316
553.462	10949.05013
553.668	11144.25691
553.873	11042.59932
554.078	11117.82853
554.283	10869.71804
554.489	11199.1409
554.694	11091.39833
554.899	11178.81439
555.105	11008.02953
555.31	11160.51963
555.515	11136.12529
555.72	11241.82316
555.925	11079.19917
556.131	11556.72204
556.336	10993.79398
556.541	11473.44898
556.746	11306.85406
556.951	11696.82936
557.156	11132.05942
557.361	11497.82323
557.567	11560.78373
557.772	11436.88501
557.977	11343.42938
558.182	11491.72979
558.387	11424.69632
558.592	11725.2517
558.797	11503.91658
559.002	11579.06091
559.207	11536.413
559.412	11449.07334
559.617	11400.31789
559.822	11595.30665
560.027	11686.6781
560.232	11721.19147
560.437	11542.50581
560.642	11611.55181
560.847	11639.97943
561.051	12054.0179
561.256	11826.74612
561.461	12293.35956
561.666	11899.80894
561.871	12200.06912
562.076	11930.24861
562.281	11970.83198
562.485	11853.13117
562.69	12127.04841
562.895	12025.61445
563.1	12045.90279
563.305	11788.18078
563.509	11830.80545
563.714	11891.69138
563.919	12086.47713
564.123	11999.23843
564.328	12088.50577
564.533	12078.36251
564.737	12064.16163
564.942	12102.70601
565.147	12309.58245
565.351	12260.91244
565.556	12021.55668
565.761	12348.11001
565.965	12333.91593
566.17	12088.50577
566.374	12266.99641
566.579	12394.7453
566.784	12309.58245
566.988	12348.11001
567.193	12530.57584
567.397	12078.36251
567.602	12406.91044
567.806	12400.8279
568.011	12672.45788
568.215	12558.95468
568.42	12538.68421
568.624	12246.71625
568.828	12457.59593
569.033	12382.57992
569.237	12751.49368
569.442	12751.49368
569.646	12633.95001
569.85	12528.54873
570.055	12962.21415
570.259	12747.44077
570.463	12779.86336
570.668	12666.37784
570.872	12715.01672
571.076	12402.85542
571.281	12700.83073
571.485	12820.38956
571.689	13016.91109
571.893	12915.61751
572.098	13122.24321
572.302	12897.38329
572.506	13134.39608
572.71	12941.95508
572.914	13310.59449
573.119	12885.2269
573.323	13029.06547
573.527	13039.19398
573.731	13037.16829
573.935	13008.80807
574.139	13061.47628
574.343	13114.1412
574.547	13110.09016
574.751	13255.91578
574.955	13296.41882
575.159	13195.15796
575.364	13249.84018
575.568	13249.84018
575.772	13345.02024
575.976	13158.70133
576.18	13565.72304
