Data from mixed_try1_USB4F045381__23__00127.txt Node

Date: Thu Apr 03 20:01:15 EDT 2025
User: mmckonesweet
Spectrometer: USB4F04538
Trigger mode: 4
Integration Time (sec): 2.700000E-3
Scans to average: 1
Electric dark correction enabled: true
Nonlinearity correction enabled: true
Boxcar width: 0
XAxis mode: Wavelengths
Number of Pixels in Spectrum: 3648
>>>>>Begin Spectral Data<<<<<
345.52	-7.02445
345.736	-7.02445
345.952	-7.02445
346.168	1.40492
346.384	-2.80981
346.6	51.98916
346.816	58.31314
347.032	-57.59244
347.248	11.94218
347.464	-49.16544
347.68	-17.56062
347.896	20.37242
348.112	-23.88203
348.328	-0.70246
348.544	3.51233
348.76	-25.98912
348.975	28.80304
349.191	18.26482
349.407	-7.02445
349.623	35.12624
349.839	-7.02445
350.055	-21.77492
350.27	24.58768
350.486	58.31314
350.702	-59.69913
350.918	49.88122
351.133	-4.91714
351.349	106.80373
351.565	-4.91714
351.781	30.91075
351.996	-0.70246
352.212	-47.05863
352.428	-0.70246
352.644	-97.61513
352.859	49.88122
353.075	18.26482
353.291	49.88122
353.506	-34.41722
353.722	56.20513
353.938	-38.63112
354.153	68.85356
354.369	33.01848
354.584	11.94218
354.8	-63.91243
355.016	5.61975
355.231	45.6654
355.447	-7.02445
355.662	7.72721
355.878	24.58768
356.093	-4.91714
356.309	-17.56062
356.524	-21.77492
356.74	24.58768
356.955	49.88122
357.171	-23.88203
357.386	-34.41722
357.602	20.37242
357.817	-82.87101
358.033	-0.70246
358.248	33.01848
358.464	3.51233
358.679	11.94218
358.895	-15.45344
359.11	-51.27223
359.325	45.6654
359.541	-72.33872
359.756	-9.13173
359.972	9.83468
360.187	-7.02445
360.402	51.98916
360.618	30.91075
360.833	7.72721
361.048	100.4782
361.264	1.40492
361.479	24.58768
361.694	1.40492
361.909	-19.66778
362.125	92.04447
362.34	-40.73804
362.555	-51.27223
362.77	37.23403
362.986	37.23403
363.201	-17.56062
363.416	-15.45344
363.631	-21.77492
363.847	28.80304
364.062	-11.23899
364.277	-21.77492
364.492	-4.91714
364.707	35.12624
364.922	-9.13173
365.138	-25.98912
365.353	16.15725
365.568	37.23403
365.783	1.40492
365.998	16.15725
366.213	66.74543
366.428	-21.77492
366.643	-51.27223
366.858	-32.31023
367.073	30.91075
367.288	-4.91714
367.503	-7.02445
367.718	24.58768
367.933	-19.66778
368.148	62.52924
368.363	33.01848
368.578	-2.80981
368.793	7.72721
369.008	41.44967
369.223	11.94218
369.438	-9.13173
369.653	35.12624
369.868	26.69535
370.083	-49.16544
370.298	-47.05863
370.513	9.83468
370.728	-25.98912
370.943	-51.27223
371.157	41.44967
371.372	30.91075
371.587	41.44967
371.802	79.39455
372.017	-63.91243
372.232	24.58768
372.446	49.88122
372.661	33.01848
372.876	-15.45344
373.091	-0.70246
373.306	-15.45344
373.52	58.31314
373.735	73.06989
373.95	7.72721
374.165	-25.98912
374.379	41.44967
374.594	9.83468
374.809	77.2863
375.023	16.15725
375.238	-25.98912
375.453	70.96171
375.667	-0.70246
375.882	49.88122
376.097	54.09713
376.311	-21.77492
376.526	20.37242
376.741	-21.77492
376.955	49.88122
377.17	-23.88203
377.384	92.04447
377.599	1.40492
377.813	5.61975
378.028	58.31314
378.242	-17.56062
378.457	41.44967
378.672	35.12624
378.886	28.80304
379.101	18.26482
379.315	9.83468
379.53	68.85356
379.744	-7.02445
379.958	-32.31023
380.173	-9.13173
380.387	7.72721
380.602	43.55752
380.816	33.01848
381.031	-38.63112
381.245	33.01848
381.459	-0.70246
381.674	-55.48573
381.888	79.39455
382.103	-28.09618
382.317	26.69535
382.531	41.44967
382.746	33.01848
382.96	11.94218
383.174	11.94218
383.388	-17.56062
383.603	16.15725
383.817	58.31314
384.031	18.26482
384.246	28.80304
384.46	-21.77492
384.674	33.01848
384.888	16.15725
385.103	33.01848
385.317	60.42118
385.531	-15.45344
385.745	-32.31023
385.959	-11.23899
386.174	1.40492
386.388	-32.31023
386.602	-2.80981
386.816	43.55752
387.03	11.94218
387.244	16.15725
387.458	-23.88203
387.672	18.26482
387.887	11.94218
388.101	18.26482
388.315	-59.69913
388.529	51.98916
388.743	20.37242
388.957	-17.56062
389.171	-17.56062
389.385	18.26482
389.599	58.31314
389.813	-9.13173
390.027	24.58768
390.241	-47.05863
390.455	18.26482
390.669	26.69535
390.883	28.80304
391.097	51.98916
391.311	24.58768
391.525	41.44967
391.738	-28.09618
391.952	18.26482
392.166	37.23403
392.38	49.88122
392.594	64.63732
392.808	-17.56062
393.022	77.2863
393.236	-7.02445
393.449	-17.56062
393.663	62.52924
393.877	-4.91714
394.091	-4.91714
394.305	47.77329
394.518	18.26482
394.732	43.55752
394.946	-30.20322
395.16	16.15725
395.373	-28.09618
395.587	-2.80981
395.801	43.55752
396.015	18.26482
396.228	16.15725
396.442	24.58768
396.656	49.88122
396.869	26.69535
397.083	43.55752
397.297	-7.02445
397.51	-19.66778
397.724	-4.91714
397.938	28.80304
398.151	64.63732
398.365	45.6654
398.578	24.58768
398.792	-2.80981
399.005	-51.27223
399.219	18.26482
399.433	7.72721
399.646	35.12624
399.86	24.58768
400.073	7.72721
400.287	-11.23899
400.5	33.01848
400.714	-4.91714
400.927	-25.98912
401.141	-34.41722
401.354	-0.70246
401.567	7.72721
401.781	-9.13173
401.994	28.80304
402.208	41.44967
402.421	-32.31023
402.635	18.26482
402.848	3.51233
403.061	7.72721
403.275	20.37242
403.488	5.61975
403.701	1.40492
403.915	3.51233
404.128	24.58768
404.341	43.55752
404.555	-23.88203
404.768	-23.88203
404.981	7.72721
405.195	41.44967
405.408	41.44967
405.621	11.94218
405.834	14.04971
406.048	26.69535
406.261	75.17808
406.474	-23.88203
406.687	45.6654
406.9	-2.80981
407.114	75.17808
407.327	-17.56062
407.54	75.17808
407.753	56.20513
407.966	-11.23899
408.179	26.69535
408.392	3.51233
408.605	28.80304
408.819	35.12624
409.032	24.58768
409.245	45.6654
409.458	-38.63112
409.671	87.82774
409.884	-25.98912
410.097	3.51233
410.31	-0.70246
410.523	-40.73804
410.736	7.72721
410.949	-34.41722
411.162	75.17808
411.375	35.12624
411.588	104.6952
411.801	16.15725
412.014	96.26129
412.227	79.39455
412.44	47.77329
412.653	35.12624
412.865	68.85356
413.078	-4.91714
413.291	-21.77492
413.504	24.58768
413.717	9.83468
413.93	28.80304
414.143	24.58768
414.356	-9.13173
414.568	20.37242
414.781	54.09713
414.994	43.55752
415.207	16.15725
415.42	-0.70246
415.632	-21.77492
415.845	-40.73804
416.058	-34.41722
416.271	18.26482
416.483	24.58768
416.696	-21.77492
416.909	28.80304
417.121	1.40492
417.334	-7.02445
417.547	33.01848
417.759	33.01848
417.972	22.48004
418.185	-11.23899
418.397	92.04447
418.61	24.58768
418.823	-80.7646
419.035	-15.45344
419.248	56.20513
419.46	24.58768
419.673	68.85356
419.885	11.94218
420.098	-4.91714
420.311	28.80304
420.523	33.01848
420.736	-15.45344
420.948	77.2863
421.161	35.12624
421.373	58.31314
421.586	22.48004
421.798	77.2863
422.01	-15.45344
422.223	70.96171
422.435	-2.80981
422.648	-59.69913
422.86	92.04447
423.073	77.2863
423.285	26.69535
423.497	-28.09618
423.71	96.26129
423.922	-34.41722
424.134	28.80304
424.347	-34.41722
424.559	-7.02445
424.771	60.42118
424.984	-55.48573
425.196	-32.31023
425.408	-21.77492
425.621	18.26482
425.833	-42.84492
426.045	-9.13173
426.257	113.12946
426.47	16.15725
426.682	-21.77492
426.894	11.94218
427.106	87.82774
427.318	33.01848
427.531	16.15725
427.743	-15.45344
427.955	-19.66778
428.167	94.15287
428.379	16.15725
428.591	-7.02445
428.804	-15.45344
429.016	51.98916
429.228	49.88122
429.44	-38.63112
429.652	-9.13173
429.864	51.98916
430.076	68.85356
430.288	92.04447
430.5	24.58768
430.712	45.6654
430.924	49.88122
431.136	-40.73804
431.348	51.98916
431.56	-4.91714
431.772	-34.41722
431.984	-13.34623
432.196	43.55752
432.408	35.12624
432.62	26.69535
432.832	37.23403
433.044	115.23808
433.256	66.74543
433.468	26.69535
433.679	58.31314
433.891	77.2863
434.103	79.39455
434.315	37.23403
434.527	94.15287
434.739	-17.56062
434.95	-9.13173
435.162	-17.56062
435.374	33.01848
435.586	-15.45344
435.798	5.61975
436.009	62.52924
436.221	26.69535
436.433	113.12946
436.645	104.6952
436.856	-51.27223
437.068	7.72721
437.28	7.72721
437.491	9.83468
437.703	28.80304
437.915	56.20513
438.126	108.91229
438.338	54.09713
438.55	3.51233
438.761	-34.41722
438.973	-68.12563
439.184	51.98916
439.396	49.88122
439.608	16.15725
439.819	-51.27223
440.031	35.12624
440.242	-0.70246
440.454	79.39455
440.665	20.37242
440.877	9.83468
441.088	20.37242
441.3	140.5432
441.511	35.12624
441.723	-0.70246
441.934	33.01848
442.146	26.69535
442.357	66.74543
442.569	49.88122
442.78	49.88122
442.991	49.88122
443.203	18.26482
443.414	75.17808
443.626	-49.16544
443.837	9.83468
444.048	-25.98912
444.26	83.6111
444.471	39.34183
444.682	26.69535
444.894	-17.56062
445.105	35.12624
445.316	43.55752
445.528	-17.56062
445.739	51.98916
445.95	66.74543
446.161	66.74543
446.373	75.17808
446.584	75.17808
446.795	-23.88203
447.006	35.12624
447.217	5.61975
447.429	62.52924
447.64	45.6654
447.851	28.80304
448.062	24.58768
448.273	16.15725
448.484	30.91075
448.695	30.91075
448.907	9.83468
449.118	-34.41722
449.329	-17.56062
449.54	-21.77492
449.751	35.12624
449.962	121.56407
450.173	79.39455
450.384	83.6111
450.595	22.48004
450.806	24.58768
451.017	-17.56062
451.228	-38.63112
451.439	37.23403
451.65	-15.45344
451.861	54.09713
452.072	49.88122
452.283	20.37242
452.494	24.58768
452.705	77.2863
452.915	58.31314
453.126	9.83468
453.337	-17.56062
453.548	115.23808
453.759	49.88122
453.97	41.44967
454.181	7.72721
454.391	73.06989
454.602	11.94218
454.813	18.26482
455.024	94.15287
455.235	58.31314
455.445	92.04447
455.656	33.01848
455.867	41.44967
456.078	45.6654
456.288	35.12624
456.499	3.51233
456.71	33.01848
456.921	16.15725
457.131	-63.91243
457.342	7.72721
457.553	81.50281
457.763	106.80373
457.974	66.74543
458.184	134.21663
458.395	-4.91714
458.606	70.96171
458.816	20.37242
459.027	89.9361
459.237	24.58768
459.448	14.04971
459.659	16.15725
459.869	60.42118
460.08	20.37242
460.29	-9.13173
460.501	62.52924
460.711	7.72721
460.922	28.80304
461.132	94.15287
461.343	134.21663
461.553	108.91229
461.764	24.58768
461.974	20.37242
462.184	92.04447
462.395	9.83468
462.605	75.17808
462.816	-7.02445
463.026	51.98916
463.236	111.02086
463.447	20.37242
463.657	-13.34623
463.867	70.96171
464.078	-17.56062
464.288	33.01848
464.498	136.32547
464.709	111.02086
464.919	70.96171
465.129	45.6654
465.339	140.5432
465.55	35.12624
465.76	49.88122
465.97	28.80304
466.18	75.17808
466.391	66.74543
466.601	117.34672
466.811	123.67278
467.021	113.12946
467.231	70.96171
467.441	100.4782
467.651	96.26129
467.862	125.7815
468.072	75.17808
468.282	62.52924
468.492	70.96171
468.702	83.6111
468.912	108.91229
469.122	142.6521
469.332	94.15287
469.542	51.98916
469.752	66.74543
469.962	108.91229
470.172	113.12946
470.382	45.6654
470.592	58.31314
470.802	117.34672
471.012	142.6521
471.222	123.67278
471.432	134.21663
471.642	210.14789
471.852	108.91229
472.062	83.6111
472.272	136.32547
472.482	142.6521
472.691	108.91229
472.901	108.91229
473.111	113.12946
473.321	142.6521
473.531	195.3814
473.741	134.21663
473.95	163.74226
474.16	142.6521
474.37	100.4782
474.58	62.52924
474.79	174.28813
474.999	172.17891
475.209	172.17891
475.419	218.58633
475.628	241.79366
475.838	121.56407
476.048	197.49084
476.258	203.81928
476.467	246.01343
476.677	163.74226
476.886	229.13482
477.096	246.01343
477.306	313.53995
477.515	296.65654
477.725	273.44377
477.935	256.56318
478.144	262.89326
478.354	288.21528
478.563	237.57397
478.773	324.09267
478.982	290.32557
479.192	262.89326
479.401	286.10501
479.611	349.42099
479.82	328.31388
480.03	408.52999
480.239	385.30703
480.449	408.52999
480.658	357.86432
480.868	438.08931
481.077	414.86386
481.287	400.08505
481.496	383.19595
481.705	454.98174
481.915	467.65171
482.124	484.54585
482.333	524.6732
482.543	395.86267
482.752	465.54001
482.961	499.329
483.171	552.13172
483.38	499.329
483.589	503.55289
483.799	488.76953
484.008	543.68269
484.217	562.6933
484.426	583.81748
484.636	604.94298
484.845	710.58885
485.054	617.61889
485.263	632.40802
485.472	693.68355
485.682	704.24928
485.891	611.28088
486.1	773.98982
486.309	862.76597
486.518	837.39972
486.727	803.58005
486.936	837.39972
487.146	854.31041
487.355	854.31041
487.564	780.33042
487.773	1017.10163
487.982	778.21687
488.191	1038.24632
488.4	894.4755
488.609	983.27141
488.818	974.81412
489.027	1021.33052
489.236	1017.10163
489.445	1063.6207
489.654	1135.51886
489.863	1201.07748
490.072	1110.1424
490.281	1234.91554
490.49	1112.25708
490.698	1266.6394
490.907	1158.78116
491.116	1363.92898
491.325	1232.80063
491.534	1454.8759
491.743	1317.3987
491.952	1463.33611
492.16	1387.19436
492.369	1619.84774
492.578	1505.63708
492.787	1452.76085
492.996	1554.28285
493.204	1554.28285
493.413	1480.25652
493.622	1727.70778
493.831	1471.79631
494.039	1691.75525
494.248	1562.74293
494.457	1679.06591
494.665	1590.238
494.874	1638.88236
495.083	1672.72121
495.291	1888.42293
495.5	1816.52717
495.709	1791.15092
495.917	1704.44448
496.126	1869.39225
496.335	1786.92149
496.543	2011.05412
496.752	1833.44432
496.96	1894.76639
497.169	1875.73586
497.377	2112.52545
497.586	1863.0486
497.794	2112.52545
498.003	1979.3411
498.211	2108.29781
498.42	2104.07014
498.628	2216.0926
498.837	2245.67949
499.045	2342.88092
499.254	2243.5662
499.462	2230.88626
499.671	2349.21943
499.879	2399.92431
500.087	2241.4529
500.296	2478.0825
500.504	2167.48189
500.713	2423.16206
500.921	2317.52596
501.129	2469.63369
501.338	2399.92431
501.546	2598.45831
501.754	2399.92431
501.962	2568.89585
502.171	2600.56982
502.379	2695.57513
502.587	2471.74591
502.795	2670.24288
503.004	2446.39853
503.212	2763.11864
503.42	2775.78154
503.628	2881.28635
503.837	2832.75847
504.045	2811.65707
504.253	2668.13177
504.461	2923.47836
504.669	2636.46369
504.877	2931.91606
505.085	2666.02066
505.294	3109.05205
505.502	2788.44394
505.71	3012.06237
505.918	2902.38308
506.126	3184.93361
506.334	2999.40913
506.542	3155.42661
506.75	3071.1035
506.958	3062.6698
507.166	3052.12732
507.374	3083.75358
507.582	3180.71852
507.79	3195.47105
507.998	3016.27999
508.206	3222.86647
508.414	3193.3636
508.622	3294.50267
508.83	3176.50337
509.037	3505.08133
509.245	3111.16015
509.453	3572.42854
509.661	3100.61948
509.869	3492.45163
510.077	3345.05756
510.285	3334.52611
510.492	3380.86123
510.7	3614.51091
510.908	3471.40069
511.116	3555.59351
511.324	3462.97981
511.531	3570.32423
511.739	3431.39895
511.947	3833.21628
512.155	3439.82091
512.362	3572.42854
512.57	3576.63711
512.778	3616.61483
512.985	3721.78675
513.193	3582.94983
513.401	3589.26238
513.608	3799.58297
513.816	3597.67886
514.024	3587.15822
514.231	3736.50699
514.439	3683.93035
514.646	3717.58079
514.854	3925.68163
515.061	3707.06556
515.269	4286.75587
515.477	3868.94611
515.684	4060.10674
515.892	3801.6852
516.099	4011.80737
516.307	3854.23452
516.514	4129.38669
516.722	3875.25078
516.929	4123.08945
517.136	3946.69106
517.344	4255.29161
517.551	4288.85332
517.759	4278.36587
517.966	4194.44708
518.173	4219.62629
518.381	4200.74217
518.588	4347.57307
518.796	4303.53484
519.003	4458.67459
519.21	4416.75669
519.418	4389.50537
519.625	4337.08864
519.832	4433.5249
520.039	4349.66989
520.247	4555.05235
520.454	4330.79773
520.661	4607.41189
520.868	4523.62996
521.076	4668.13147
521.283	4571.80892
521.49	4609.50598
521.697	4490.10725
521.904	4877.36374
522.112	4705.80998
522.319	4820.89341
522.526	4818.8016
522.733	5025.78005
522.94	4705.80998
523.147	4718.36787
523.354	4994.43416
523.561	5149.02337
523.768	4866.90753
523.975	4908.72895
524.183	4714.182
524.39	5065.47739
524.597	5032.04861
524.804	5144.84695
525.011	5000.70376
525.218	5286.79282
525.425	5217.9208
525.632	5111.43227
525.838	5215.83337
526.045	5182.43135
526.252	5161.55206
526.459	5326.43485
526.666	5326.43485
526.873	5453.64942
527.08	5284.70616
527.287	5399.4375
527.494	5249.22942
527.701	5495.34009
527.907	5138.58215
528.114	5501.59287
528.321	5368.15417
528.528	5582.85982
528.735	5401.52287
528.941	5520.34996
529.148	5624.52127
529.355	5587.02639
529.562	5584.94312
529.768	5634.93516
529.975	5503.67709
530.182	5672.42028
530.388	5422.37526
530.595	5776.50549
530.802	5870.13173
531.008	6003.20677
531.215	5826.44543
531.422	5882.61162
531.628	5776.50549
531.835	5809.8003
532.042	5788.99175
532.248	6090.48481
532.455	5969.94706
532.661	6144.49327
532.868	5826.44543
533.074	6086.32965
533.281	6125.79983
533.487	6250.38685
533.694	6042.69483
533.9	6451.62435
534.107	6144.49327
534.313	6333.398
534.52	6148.64711
534.726	6391.48356
534.933	6100.87229
535.139	6289.82181
535.345	6273.21865
535.552	6497.23535
535.758	6256.61398
535.965	6432.96206
536.171	6505.52706
536.377	6507.59993
536.584	6306.42348
536.79	6627.78665
536.996	6687.85091
537.203	6493.08936
537.409	6491.01633
537.615	6787.22521
537.821	6488.94328
538.028	6859.65244
538.234	6654.7144
538.44	6754.1063
538.646	6640.21533
538.853	6855.51449
539.059	6555.26949
539.265	7113.96254
539.471	6892.75276
539.677	6963.07166
539.883	6969.27502
540.09	7016.82734
540.296	6952.73229
540.502	7016.82734
540.708	6869.99691
540.914	6880.34082
541.12	6979.61349
541.326	7167.67572
541.532	6971.34276
541.738	7520.5723
541.944	7165.6101
542.15	7144.95275
542.356	7345.23579
542.562	7219.30884
542.768	7153.21596
542.974	7438.08052
543.18	7341.10833
543.386	7621.57789
543.592	7204.85296
543.798	7650.42722
544.004	7413.32623
544.21	7398.88479
544.415	7365.87176
544.621	7567.98948
544.827	7167.67572
545.033	7837.84714
545.239	7728.71164
545.445	7800.78883
545.651	7547.37471
545.856	7858.43218
546.062	7563.8667
546.268	7823.43637
546.474	7452.51907
546.679	7598.90763
546.885	7549.43629
547.091	7794.61179
547.297	7563.8667
547.502	7782.25714
547.708	7621.57789
547.914	7862.54893
548.119	7699.87356
548.325	7918.11709
548.531	7640.12437
548.736	7922.23265
548.942	7963.38375
549.147	7996.29874
549.353	7955.15419
549.559	8392.93114
549.764	8082.67581
549.97	8058.00029
550.175	8062.11308
550.381	8109.40435
550.586	8027.1518
550.792	8362.1311
550.997	8045.66144
551.203	8339.54163
551.408	8103.23653
551.614	8265.59594
551.819	8099.12455
552.025	8296.40973
552.23	8109.40435
552.435	8329.27291
552.641	8378.55833
552.846	8526.348
553.052	8518.14006
553.257	8616.61541
553.462	8706.84665
553.668	8780.64565
553.873	8542.76297
554.078	8801.14117
554.283	8273.81339
554.489	8842.12678
554.694	8676.09003
554.899	9016.23576
555.105	8690.44364
555.31	9040.80558
555.515	8528.39993
555.72	9120.64022
555.925	8665.8369
556.131	8899.49453
556.336	8501.72327
556.541	8911.78579
556.746	8905.64024
556.951	8962.9925
557.156	8817.53628
557.361	9042.85295
557.567	8987.56779
557.772	9038.75819
557.977	8762.19812
558.182	8985.51994
558.387	8962.9925
558.592	9063.32571
558.797	8813.43761
559.002	9231.13743
559.207	8870.81241
559.412	9255.68566
559.617	9083.79673
559.822	9192.26443
560.027	8821.63488
560.232	9396.7915
560.437	8881.05643
560.642	9200.44873
560.847	9196.35661
561.051	9404.96915
561.256	9175.89502
561.461	9503.08069
561.666	9560.29537
561.871	9339.54064
562.076	9304.77489
562.281	9558.2522
562.485	9153.38531
562.69	9423.3679
562.895	9274.09525
563.1	9521.47248
563.305	9460.16146
563.509	9617.49767
563.714	9341.58554
563.919	9644.05171
564.123	9202.49476
564.328	9501.03707
564.533	9515.34202
564.737	9629.7537
564.942	9525.55937
565.147	9748.20004
565.351	9449.94155
565.556	9917.61225
565.761	9566.42478
565.965	9715.53035
566.17	9799.23866
566.374	9639.96664
566.579	9803.32134
566.784	9933.93575
566.988	9911.4907
567.193	10025.73812
567.397	10013.49949
567.602	9929.85496
567.806	9766.57503
568.011	10086.92358
568.215	10029.81755
568.42	10333.57806
568.624	10064.49039
568.828	10260.21412
569.033	9811.48653
569.237	10235.75559
569.442	10031.85724
569.646	10133.82384
569.85	10121.5897
570.055	10374.32834
570.259	10109.35506
570.463	10201.10265
570.668	10172.56196
570.872	10262.25224
571.076	10091.00216
571.281	10309.12534
571.485	10064.49039
571.689	10121.5897
571.893	10417.11048
572.098	10404.8876
572.302	10060.41145
572.506	10441.55484
572.71	10319.3142
572.914	10376.36572
573.119	10496.54785
573.323	10182.75538
573.527	10549.4953
573.731	10694.03959
573.935	10588.18228
574.139	10755.09616
574.343	10374.32834
574.547	10687.93333
574.751	10571.89357
574.955	10718.46351
575.159	10604.47018
575.364	10942.27029
575.568	10341.72854
575.772	10598.36231
575.976	10455.81319
576.18	10856.8334
576.383	10875.14301
576.587	10938.20232
576.791	10783.58555
