Data from mixed_try1_USB4F045381__2__00106.txt Node

Date: Thu Apr 03 19:58:34 EDT 2025
User: mmckonesweet
Spectrometer: USB4F04538
Trigger mode: 4
Integration Time (sec): 2.700000E-3
Scans to average: 1
Electric dark correction enabled: true
Nonlinearity correction enabled: true
Boxcar width: 0
XAxis mode: Wavelengths
Number of Pixels in Spectrum: 3648
>>>>>Begin Spectral Data<<<<<
345.52	2.63424
345.736	2.63424
345.952	2.63424
346.168	19.49425
346.384	2.63424
346.6	32.14026
346.816	8.95656
347.032	-41.61591
347.248	72.19148
347.464	32.14026
347.68	-43.72279
347.896	-35.29512
348.112	-16.33143
348.328	-22.65289
348.544	6.8491
348.76	27.92483
348.975	-20.54576
349.191	13.17157
349.407	-7.90249
349.623	15.2791
349.839	-75.32294
350.055	38.46358
350.27	-98.49271
350.486	-22.65289
350.702	23.70949
350.918	-14.22423
351.133	38.46358
351.349	19.49425
351.565	23.70949
351.781	-18.43861
351.996	2.63424
352.212	19.49425
352.428	38.46358
352.644	-22.65289
352.859	-3.68787
353.075	0.52684
353.291	38.46358
353.506	-60.57691
353.722	30.03253
353.938	-35.29512
354.153	63.75895
354.369	-81.64228
354.584	-47.93647
354.8	-22.65289
355.016	-20.54576
355.231	38.46358
355.447	-1.58052
355.662	-31.08114
355.878	-12.11701
356.093	17.38667
356.309	-12.11701
356.524	-37.40208
356.74	55.32679
356.955	36.35578
357.171	-47.93647
357.386	38.46358
357.602	-5.79519
357.817	-10.00976
358.033	-31.08114
358.248	-35.29512
358.464	-54.2568
358.679	-31.08114
358.895	-39.50901
359.11	-39.50901
359.325	-10.00976
359.541	-12.11701
359.756	51.11085
359.972	21.60186
360.187	-31.08114
360.402	-50.04327
360.618	6.8491
360.833	-58.47023
361.048	86.94927
361.264	-10.00976
361.479	53.21881
361.694	-62.68356
361.909	-20.54576
362.125	-73.21644
362.34	-10.00976
362.555	-33.18815
362.77	15.2791
362.986	-14.22423
363.201	2.63424
363.416	-31.08114
363.631	51.11085
363.847	-35.29512
364.062	36.35578
364.277	-60.57691
364.492	38.46358
364.707	-28.97412
364.922	40.5714
365.138	70.08331
365.353	59.54283
365.568	-52.15005
365.783	-56.36353
365.998	-35.29512
366.213	-7.90249
366.428	-41.61591
366.643	8.95656
366.858	-28.97412
367.073	25.81715
367.288	-37.40208
367.503	53.21881
367.718	-37.40208
367.933	-43.72279
368.148	-10.00976
368.363	72.19148
368.578	38.46358
368.793	-5.79519
369.008	15.2791
369.223	19.49425
369.438	63.75895
369.653	-52.15005
369.868	-14.22423
370.083	19.49425
370.298	53.21881
370.513	34.24801
370.728	-22.65289
370.943	-14.22423
371.157	55.32679
371.372	2.63424
371.587	2.63424
371.802	-39.50901
372.017	15.2791
372.232	-10.00976
372.446	40.5714
372.661	-10.00976
372.876	44.78711
373.091	19.49425
373.306	-31.08114
373.52	30.03253
373.735	-14.22423
373.95	-18.43861
374.165	-10.00976
374.379	-18.43861
374.594	19.49425
374.809	-77.42941
375.023	57.4348
375.238	63.75895
375.453	-31.08114
375.667	72.19148
375.882	40.5714
376.097	27.92483
376.311	-37.40208
376.526	-39.50901
376.741	-10.00976
376.955	55.32679
377.17	74.29967
377.384	-5.79519
377.599	15.2791
377.813	-28.97412
378.028	23.70949
378.242	-18.43861
378.457	51.11085
378.672	6.8491
378.886	4.74166
379.101	57.4348
379.315	-18.43861
379.53	-28.97412
379.744	36.35578
379.958	2.63424
380.173	4.74166
380.387	19.49425
380.602	-35.29512
380.816	36.35578
381.031	2.63424
381.245	27.92483
381.459	46.895
381.674	-83.74867
381.888	36.35578
382.103	27.92483
382.317	-12.11701
382.531	-1.58052
382.746	27.92483
382.96	2.63424
383.174	-18.43861
383.388	2.63424
383.603	46.895
383.817	0.52684
384.031	-56.36353
384.246	11.06405
384.46	32.14026
384.674	44.78711
384.888	2.63424
385.103	8.95656
385.317	-18.43861
385.531	74.29967
385.745	-12.11701
385.959	25.81715
386.174	27.92483
386.388	34.24801
386.602	-1.58052
386.816	-45.82964
387.03	-5.79519
387.244	30.03253
387.458	27.92483
387.672	21.60186
387.887	-33.18815
388.101	-47.93647
388.315	6.8491
388.529	57.4348
388.743	55.32679
388.957	46.895
389.171	4.74166
389.385	15.2791
389.599	55.32679
389.813	19.49425
390.027	-14.22423
390.241	2.63424
390.455	-37.40208
390.669	32.14026
390.883	-39.50901
391.097	23.70949
391.311	-39.50901
391.525	-18.43861
391.738	49.00291
391.952	19.49425
392.166	70.08331
392.38	65.86705
392.594	-5.79519
392.808	11.06405
393.022	95.38278
393.236	-18.43861
393.449	40.5714
393.663	30.03253
393.877	61.65088
394.091	-18.43861
394.305	15.2791
394.518	4.74166
394.732	27.92483
394.946	78.51611
395.16	-5.79519
395.373	-58.47023
395.587	15.2791
395.801	-1.58052
396.015	-14.22423
396.228	70.08331
396.442	61.65088
396.656	6.8491
396.869	-47.93647
397.083	114.35949
397.297	27.92483
397.51	-56.36353
397.724	65.86705
397.938	-47.93647
398.151	-10.00976
398.365	-18.43861
398.578	6.8491
398.792	-14.22423
399.005	19.49425
399.219	-39.50901
399.433	-24.75999
399.646	2.63424
399.86	-20.54576
400.073	44.78711
400.287	55.32679
400.5	-39.50901
400.714	36.35578
400.927	19.49425
401.141	15.2791
401.354	-20.54576
401.567	38.46358
401.781	11.06405
401.994	4.74166
402.208	-24.75999
402.421	19.49425
402.635	-39.50901
402.848	32.14026
403.061	-10.00976
403.275	15.2791
403.488	63.75895
403.701	-20.54576
403.915	-56.36353
404.128	13.17157
404.341	55.32679
404.555	-24.75999
404.768	32.14026
404.981	19.49425
405.195	86.94927
405.408	2.63424
405.621	91.16598
405.834	19.49425
406.048	-18.43861
406.261	25.81715
406.474	53.21881
406.687	19.49425
406.9	-1.58052
407.114	57.4348
407.327	95.38278
407.54	61.65088
407.753	2.63424
407.966	53.21881
408.179	2.63424
408.392	63.75895
408.605	32.14026
408.819	78.51611
409.032	-45.82964
409.245	27.92483
409.458	53.21881
409.671	63.75895
409.884	61.65088
410.097	70.08331
410.31	78.51611
410.523	-14.22423
410.736	2.63424
410.949	-1.58052
411.162	-14.22423
411.375	27.92483
411.588	44.78711
411.801	89.05761
412.014	40.5714
412.227	-22.65289
412.44	55.32679
412.653	63.75895
412.865	44.78711
413.078	-31.08114
413.291	91.16598
413.504	-5.79519
413.717	0.52684
413.93	91.16598
414.143	72.19148
414.356	63.75895
414.568	36.35578
414.781	38.46358
414.994	40.5714
415.207	76.40788
415.42	65.86705
415.632	114.35949
415.845	23.70949
416.058	27.92483
416.271	78.51611
416.483	53.21881
416.696	2.63424
416.909	27.92483
417.121	137.55563
417.334	21.60186
417.547	61.65088
417.759	57.4348
417.972	76.40788
418.185	82.73264
418.397	23.70949
418.61	57.4348
418.823	57.4348
419.035	38.46358
419.248	137.55563
419.46	99.59967
419.673	4.74166
419.885	55.32679
420.098	49.00291
420.311	53.21881
420.523	89.05761
420.736	57.4348
420.948	61.65088
421.161	40.5714
421.373	44.78711
421.586	118.57677
421.798	150.20917
422.01	32.14026
422.223	53.21881
422.435	65.86705
422.648	70.08331
422.86	95.38278
423.073	122.79415
423.285	80.62436
423.497	86.94927
423.71	36.35578
423.922	105.92518
424.134	44.78711
424.347	97.49122
424.559	63.75895
424.771	82.73264
424.984	162.86346
425.196	89.05761
425.408	120.68545
425.621	99.59967
425.833	148.10019
426.045	89.05761
426.257	122.79415
426.47	27.92483
426.682	112.25088
426.894	89.05761
427.106	175.51851
427.318	61.65088
427.531	74.29967
427.743	148.10019
427.955	181.84631
428.167	183.95562
428.379	188.1743
428.591	80.62436
428.804	122.79415
429.016	150.20917
429.228	181.84631
429.44	120.68545
429.652	162.86346
429.864	95.38278
430.076	175.51851
430.288	190.28367
430.5	205.04983
430.712	158.64528
430.924	190.28367
431.136	183.95562
431.348	114.35949
431.56	148.10019
431.772	156.53622
431.984	133.33796
432.196	167.08173
432.408	215.59768
432.62	148.10019
432.832	205.04983
433.044	175.51851
433.256	162.86346
433.468	196.6119
433.679	198.72135
433.891	238.8047
434.103	272.56455
434.315	219.81696
434.527	264.12413
434.739	226.14603
434.95	171.30008
435.162	207.15936
435.374	162.86346
435.586	266.2342
435.798	219.81696
436.009	308.43963
436.221	217.70731
436.433	205.04983
436.645	234.58507
436.856	333.76638
437.068	289.44628
437.28	186.06495
437.491	274.6747
437.703	331.65572
437.915	333.76638
438.126	323.21326
438.338	340.09847
438.55	344.31995
438.761	264.12413
438.973	407.65029
439.184	259.90403
439.396	407.65029
439.608	281.00526
439.819	314.77108
440.031	369.65026
440.242	342.2092
440.454	344.31995
440.665	352.76311
440.877	331.65572
441.088	318.99213
441.3	401.31658
441.511	375.98323
441.723	323.21326
441.934	407.65029
442.146	399.20538
442.357	451.9903
442.569	340.09847
442.78	340.09847
442.991	365.42837
443.203	382.31634
443.414	331.65572
443.626	460.4368
443.837	511.12083
444.048	409.76156
444.26	441.43252
444.471	409.76156
444.682	451.9903
444.894	483.66592
445.105	394.98302
445.316	466.77183
445.528	365.42837
445.739	475.21875
445.95	475.21875
446.161	475.21875
446.373	559.70082
446.584	585.04977
446.795	568.15026
447.006	614.62592
447.217	557.58849
447.429	451.9903
447.64	468.88354
447.851	494.22521
448.062	525.90526
448.273	559.70082
448.484	629.41493
448.695	511.12083
448.907	559.70082
449.118	608.28796
449.329	604.06272
449.54	610.4006
449.751	572.37505
449.962	589.27478
450.173	701.25563
450.384	639.97888
450.595	652.65602
450.806	787.90403
451.017	627.30218
451.228	777.33623
451.439	595.61239
451.65	707.59515
451.861	591.3873
452.072	699.14248
452.283	813.26773
452.494	804.81301
452.705	883.02463
452.915	764.6552
453.126	792.13122
453.337	876.6827
453.548	895.70869
453.759	838.63277
453.97	876.6827
454.181	940.10513
454.391	891.48064
454.602	980.27611
454.813	999.30532
455.024	1041.59428
455.235	978.16178
455.445	1050.05236
455.656	914.73532
455.867	1062.73964
456.078	1018.33505
456.288	990.84783
456.499	1069.08335
456.71	1052.16689
456.921	1109.26129
457.131	1238.26414
457.342	1185.39243
457.553	1050.05236
457.763	1147.32618
457.974	1280.56283
458.184	1176.93315
458.395	1248.83871
458.606	1236.14923
458.816	1337.66748
459.027	1540.71144
459.237	1481.4903
459.448	1502.64077
459.659	1470.91504
459.869	1519.56111
460.08	1415.92371
460.29	1532.25132
460.501	1895.99984
460.711	1703.56329
460.922	1610.50661
461.132	1690.87405
461.343	1542.82647
461.553	1722.59694
461.764	1709.90787
461.974	1821.99003
462.184	1686.64428
462.395	1847.3655
462.605	1950.97438
462.816	1919.25876
463.026	2048.22693
463.236	1889.65638
463.447	2166.60122
463.657	2014.40152
463.867	2177.16916
464.078	2191.96393
464.288	2166.60122
464.498	2301.85449
464.709	2365.2414
464.919	2259.59177
465.129	2405.38178
465.339	2491.98746
465.55	2380.03039
465.76	2382.14306
465.97	2409.60686
466.18	2388.48102
466.391	2899.39446
466.601	2631.36135
466.811	2783.34387
467.021	2777.01263
467.231	3011.18369
467.441	2739.02264
467.651	3004.85712
467.862	3019.6189
468.072	3316.79719
468.282	3082.87512
468.492	3150.33281
468.702	3356.81716
468.912	3478.94416
469.122	3247.27412
469.332	3516.83337
469.542	3255.70214
469.752	3762.966
469.962	3884.88256
470.172	3920.60405
470.382	3830.23853
470.592	3813.42229
470.802	3945.81571
471.012	4159.99558
471.222	4187.27744
471.432	4080.22826
471.642	4225.04642
471.852	4365.57008
472.062	4239.7325
472.272	4378.14956
472.482	4566.74719
472.691	4677.72623
472.901	4543.70595
473.111	4591.88001
473.321	4700.75172
473.531	4926.6745
473.741	4851.39643
473.95	5219.13846
474.16	4813.74629
474.37	5192.00025
474.58	5221.22585
474.79	5606.98989
474.999	5486.13421
475.209	5371.45655
475.419	5596.57442
475.628	5702.78456
475.838	5677.79946
476.048	5852.62379
476.258	5977.39638
476.467	6371.95088
476.677	6527.46373
476.886	6378.1739
477.096	6363.65318
477.306	6666.27833
477.515	6525.39109
477.725	6602.06356
477.935	6736.68203
478.144	6786.36281
478.354	6970.4812
478.563	7073.83999
478.773	7123.4323
478.982	7340.24843
479.192	7414.52964
479.401	7315.48174
479.611	7416.5926
479.82	7501.15547
480.03	7569.19195
480.239	7764.92505
480.449	8055.08702
480.658	8011.89725
480.868	8073.59419
481.077	8053.03057
481.287	7981.04192
481.496	8406.44756
481.705	8492.65931
481.915	8769.54315
482.124	8703.94203
482.333	8872.00757
482.543	8779.79163
482.752	8849.46927
482.961	8902.73812
483.171	9117.7407
483.38	8923.22292
483.589	9387.76171
483.799	9324.37382
484.008	9391.85071
484.217	9455.22189
484.426	9806.55342
484.636	9659.54035
484.845	9873.90827
485.054	9775.93219
485.263	10020.80873
485.472	10151.32458
485.682	10185.98322
485.891	10104.42708
486.1	10086.07387
486.309	10581.22574
486.518	10723.72122
486.727	10532.35619
486.936	10898.70678
487.146	10703.36837
487.355	11150.86372
487.564	10866.15785
487.773	11211.84443
487.982	11333.77788
488.191	11441.45567
488.4	11350.03291
488.609	11607.99823
488.818	11504.42435
489.027	11571.44551
489.236	11748.08983
489.445	11796.80751
489.654	11863.78627
489.863	12003.8036
490.072	12026.12166
490.281	12009.89044
490.49	12011.91937
490.698	12340.50608
490.907	12153.92521
491.116	12632.42992
491.325	12458.10276
491.534	12612.16169
491.743	12650.6708
491.952	12857.36779
492.16	12883.70734
492.369	13181.48689
492.578	13092.36667
492.787	13140.97882
492.996	12980.95333
493.204	13266.548
493.413	13432.59814
493.622	13738.30735
493.831	13379.95105
494.039	13805.10795
494.248	13586.47494
494.457	13991.32364
494.665	14062.16083
494.874	13792.96263
495.083	13983.22777
495.291	14149.18551
495.5	14238.22997
495.709	14394.04909
495.917	14228.11148
496.126	14169.42323
496.335	14288.82174
496.543	14541.76511
496.752	14371.78983
496.96	14557.95273
497.169	15059.74123
497.377	14687.4511
497.586	14952.50726
497.794	15041.53175
498.003	14699.59136
498.211	15104.25326
498.42	15090.09035
498.628	15177.09101
498.837	15294.44086
499.045	15393.58186
499.254	15434.04783
499.462	15383.46539
499.671	15885.26295
499.879	15648.52142
500.087	15875.14549
500.296	16026.91091
500.504	15832.65245
500.713	16028.9345
500.921	16399.27904
501.129	15820.51168
501.338	15879.19247
501.546	16415.47034
501.754	16346.65816
501.962	16283.91955
502.171	16124.04497
502.379	16587.5111
502.587	16245.46772
502.795	16474.1649
503.004	16273.80058
503.212	16798.02988
503.42	16524.76505
503.628	16992.37847
503.837	16611.80045
504.045	17051.09271
504.253	17130.05687
504.461	17263.69837
504.669	17057.16672
504.877	17245.47379
505.085	17229.27436
505.294	17391.27726
505.502	17255.59853
505.71	17482.41247
505.918	17253.57358
506.126	17535.07127
506.334	17115.8835
506.542	18007.07506
506.75	17662.67662
506.958	17812.57905
507.166	17855.12231
507.374	18015.17976
507.582	17737.62553
507.79	17998.97041
507.998	18053.67788
508.206	18175.25944
508.414	17924.00512
508.622	18033.41555
508.83	18173.23297
509.037	18335.36198
509.245	18315.09455
509.453	18444.81261
509.661	18347.52262
509.869	18769.17667
510.077	18219.84263
510.285	18698.21349
510.492	18444.81261
510.7	18791.48039
510.908	18898.95048
511.116	18850.28339
511.324	18515.75877
511.531	18969.92747
511.739	18947.61989
511.947	18781.34228
512.155	18720.51569
512.362	18844.20017
512.57	19006.43184
512.778	19223.45722
512.985	19219.40024
513.193	19136.2358
513.401	19302.57158
513.608	19343.14548
513.816	19521.69031
514.024	19349.23171
514.231	19493.2833
514.439	19448.64536
514.646	19700.26739
514.854	19594.74066
515.061	19255.91364
515.269	19633.2972
515.477	19663.73763
515.684	19619.09198
515.892	19953.98379
516.099	20085.94227
516.307	20112.3361
516.514	20262.59143
516.722	20108.27547
516.929	19980.37407
517.136	19913.38476
517.344	20073.76075
517.551	20217.91852
517.759	20266.65271
517.966	20276.80597
518.173	20356.005
518.381	20268.68335
518.588	20394.59145
518.796	20618.01643
519.003	20847.58734
519.21	20589.57772
519.418	20648.48739
519.625	20561.13982
519.832	21058.92047
520.039	21195.09123
520.247	21258.10178
520.454	20808.98321
520.661	21630.14582
520.868	20955.2804
521.076	21514.24896
521.283	21449.1897
521.49	21439.02456
521.697	21180.86358
521.904	21632.17921
522.112	21312.98511
522.319	21782.6611
522.526	21540.68045
522.733	21569.14588
522.94	21504.08319
523.147	21729.78665
523.354	21705.38395
523.561	21963.67415
523.768	21988.08273
523.975	22179.30203
524.183	22024.69661
524.39	22458.05268
524.597	22311.54741
524.804	22283.06248
525.011	22299.3395
525.218	22342.06779
525.425	22614.75257
525.632	22228.12928
525.838	22512.99698
526.045	22419.38974
526.252	22352.24143
526.459	22755.18975
526.666	22490.61195
526.873	22962.82265
527.08	22683.95142
527.287	22602.54143
527.494	22791.82826
527.701	23425.03164
527.907	23119.58837
528.114	23099.22807
528.321	23062.58037
528.528	23396.52057
528.735	23496.312
528.941	23634.81033
529.148	23205.10518
529.355	23429.1047
529.562	23559.44919
529.768	23909.81128
529.975	23150.12943
530.182	23783.50789
530.388	23734.61927
530.595	23844.62104
530.802	23895.55067
531.008	24421.24637
531.215	24260.25831
531.422	24406.98094
531.628	24193.01505
531.835	23754.98932
532.042	24339.73137
532.248	24584.28875
532.455	24101.32449
532.661	24368.26114
532.868	24482.38534
533.074	24883.92055
533.281	24800.34453
533.487	24625.05188
533.694	24623.0137
533.9	25409.92554
534.107	25002.15677
534.313	25293.70262
534.52	25322.24796
534.726	24951.19193
534.933	25114.28443
535.139	25373.22282
535.345	25460.90264
535.552	25324.28693
535.758	25383.41795
535.965	25679.09893
536.171	25448.66802
536.377	25677.05961
536.584	25566.9391
536.79	25815.73793
536.996	25878.96182
537.203	25367.10577
537.409	25254.96317
537.615	26029.89052
537.821	25426.23807
538.028	26231.82382
538.234	25781.06752
538.44	25844.29043
538.646	25925.87103
538.853	26335.85658
539.059	25980.93958
539.265	25993.17722
539.471	26103.31884
539.677	26337.89649
539.883	26739.7881
540.09	26421.53385
540.296	26639.81959
540.502	26803.03534
540.708	26664.30134
540.914	26960.13935
541.12	27035.63387
541.326	27347.83367
541.532	27486.59893
541.738	27107.04936
541.944	26758.15005
542.15	27219.27705
542.356	27068.28074
542.562	27490.68035
542.768	27358.0368
542.974	27609.04366
543.18	27482.51752
543.386	27651.90036
543.592	27304.98089
543.798	27655.98198
544.004	27698.83926
544.21	27831.49605
544.415	27635.57394
544.621	27866.19172
544.827	27225.39867
545.033	27933.5431
545.239	28098.86536
545.445	28258.07148
545.651	27943.74796
545.856	28164.17988
546.062	28433.61412
546.268	28343.80061
546.474	28141.72788
546.679	27862.10986
546.885	27776.39185
547.091	27931.50213
547.297	27927.42019
547.502	28386.66589
547.708	28370.33621
547.914	28211.12539
548.119	28515.26457
548.325	28298.89464
548.531	28056.00332
548.736	28549.96652
548.942	28327.47111
549.147	28376.45983
549.353	28652.03285
549.559	28594.87538
549.764	28752.0604
549.97	28570.37957
550.175	29156.2788
550.381	29311.44416
550.586	28913.33458
550.792	29274.69392
550.997	28974.57964
551.203	29188.94469
551.408	28923.54202
551.614	29235.90238
551.819	29423.73864
552.025	29768.80907
552.23	29366.57014
552.435	29580.95629
552.641	29838.23526
552.846	29989.34376
553.052	30017.93254
553.257	30250.73537
553.462	30281.36846
553.668	30007.72224
553.873	30097.57392
554.078	30028.14288
554.283	30175.17489
554.489	30569.33293
554.694	30312.00181
554.899	29942.37695
555.105	30309.95958
555.31	30475.38436
555.515	30222.14473
555.72	31071.80132
555.925	30179.2592
556.131	30463.13039
556.336	30489.68071
556.541	30853.23778
556.746	30777.66346
556.951	30781.74851
557.156	30371.22708
557.361	30802.17385
557.567	30657.15688
557.772	31047.2887
557.977	30951.28296
558.182	31012.56285
558.387	31110.61339
558.592	31180.06792
558.797	31071.80132
559.002	31333.28269
559.207	31670.38717
559.412	31231.13854
559.617	30896.13215
559.822	31451.77487
560.027	31092.22866
560.232	31231.13854
560.437	31333.28269
560.642	31382.31328
560.847	30722.51581
561.051	31437.4738
561.256	31306.72483
561.461	31950.32223
561.666	31476.29117
561.871	31893.1064
562.076	31535.53991
562.281	31680.60318
562.485	31643.82575
562.69	31582.53129
562.895	31394.57107
563.1	31739.85691
563.305	31807.28541
563.509	31686.73281
563.714	31645.86893
563.919	31766.41942
564.123	31725.55415
564.328	32124.02247
564.533	31731.6839
564.737	31380.27032
564.942	31649.95528
565.147	32506.21571
565.351	31862.45567
565.556	31819.54535
565.761	32549.14062
565.965	32318.1754
566.17	32109.71721
566.374	32146.50238
566.579	32168.98254
566.784	32361.096
566.988	32369.27146
567.193	32244.59944
567.397	32144.45874
567.602	32641.12602
567.806	32491.90763
568.011	32898.71127
568.215	32663.61207
568.42	32972.31442
568.624	32774.00239
568.828	32757.64781
569.033	32598.19891
569.237	33015.25117
