Data from mixed_try1_USB4F045381__33__00137.txt Node

Date: Thu Apr 03 20:02:26 EDT 2025
User: mmckonesweet
Spectrometer: USB4F04538
Trigger mode: 4
Integration Time (sec): 2.700000E-3
Scans to average: 1
Electric dark correction enabled: true
Nonlinearity correction enabled: true
Boxcar width: 0
XAxis mode: Wavelengths
Number of Pixels in Spectrum: 3648
>>>>>Begin Spectral Data<<<<<
345.52	6.32224
345.736	6.32224
345.952	6.32224
346.168	-61.10358
346.384	65.34002
346.6	-25.28676
346.816	61.12386
347.032	-52.67674
347.248	-10.53658
347.464	21.07496
347.68	-18.9654
347.896	8.4297
348.112	48.47593
348.328	-35.82187
348.544	40.04444
348.76	-35.82187
348.975	0
349.191	-61.10358
349.407	-40.03573
349.623	-50.56997
349.839	40.04444
350.055	-27.39383
350.27	21.07496
350.486	-40.03573
350.702	-8.42931
350.918	-16.85823
351.133	23.18258
351.349	-44.2495
351.565	31.61332
351.781	-33.71489
351.996	23.18258
352.212	8.4297
352.428	-27.39383
352.644	12.64469
352.859	10.53718
353.075	52.69182
353.291	-44.2495
353.506	-14.75104
353.722	67.44814
353.938	12.64469
354.153	-37.92881
354.369	-10.53658
354.584	31.61332
354.8	-48.46317
355.016	-35.82187
355.231	8.4297
355.447	99.07256
355.662	-4.2147
355.878	35.82884
356.093	-6.32202
356.309	-37.92881
356.524	82.20557
356.74	-52.67674
356.955	42.15228
357.171	4.2148
357.386	-42.14263
357.602	-18.9654
357.817	-18.9654
358.033	14.75222
358.248	29.5056
358.464	-8.42931
358.679	50.58386
358.895	33.72107
359.11	56.90779
359.325	56.90779
359.541	23.18258
359.756	-18.9654
359.972	46.36803
360.187	37.93663
360.402	96.96411
360.618	23.18258
360.833	31.61332
361.048	-67.42343
361.264	-8.42931
361.479	8.4297
361.694	48.47593
361.909	25.29023
362.125	31.61332
362.34	-37.92881
362.555	0
362.77	-2.10736
362.986	25.29023
363.201	37.93663
363.416	31.61332
363.631	77.98905
363.847	33.72107
364.062	-63.21022
364.277	40.04444
364.492	29.5056
364.707	-10.53658
364.922	-8.42931
365.138	-16.85823
365.353	8.4297
365.568	-29.50088
365.783	-25.28676
365.998	-42.14263
366.213	6.32224
366.428	-18.9654
366.643	48.47593
366.858	-61.10358
367.073	52.69182
367.288	80.0973
367.503	-2.10736
367.718	52.69182
367.933	16.85977
368.148	-27.39383
368.363	56.90779
368.578	23.18258
368.793	-2.10736
369.008	-35.82187
369.223	-25.28676
369.438	8.4297
369.653	-33.71489
369.868	33.72107
370.083	-44.2495
370.298	-6.32202
370.513	42.15228
370.728	27.39791
370.943	23.18258
371.157	-2.10736
371.372	29.5056
371.587	69.55627
371.802	-25.28676
372.017	18.96735
372.232	48.47593
372.446	44.26014
372.661	69.55627
372.876	48.47593
373.091	10.53718
373.306	-50.56997
373.52	61.12386
373.735	-52.67674
373.95	-14.75104
374.165	-10.53658
374.379	61.12386
374.594	-18.9654
374.809	25.29023
375.023	-14.75104
375.238	35.82884
375.453	-50.56997
375.667	-16.85823
375.882	44.26014
376.097	27.39791
376.311	-23.17966
376.526	67.44814
376.741	-2.10736
376.955	-21.07254
377.17	40.04444
377.384	-44.2495
377.599	50.58386
377.813	65.34002
378.028	25.29023
378.242	-69.53
378.457	-23.17966
378.672	42.15228
378.886	-48.46317
379.101	40.04444
379.315	23.18258
379.53	25.29023
379.744	-23.17966
379.958	6.32224
380.173	-44.2495
380.387	99.07256
380.602	18.96735
380.816	-50.56997
381.031	42.15228
381.245	37.93663
381.459	23.18258
381.674	27.39791
381.888	-35.82187
382.103	25.29023
382.317	25.29023
382.531	-40.03573
382.746	-16.85823
382.96	-65.31684
383.174	14.75222
383.388	-48.46317
383.603	52.69182
383.817	18.96735
384.031	4.2148
384.246	69.55627
384.46	-69.53
384.674	-6.32202
384.888	-31.6079
385.103	37.93663
385.317	56.90779
385.531	14.75222
385.745	14.75222
385.959	-33.71489
386.174	-44.2495
386.388	40.04444
386.602	0
386.816	6.32224
387.03	-44.2495
387.244	40.04444
387.458	25.29023
387.672	12.64469
387.887	35.82884
388.101	-31.6079
388.315	-25.28676
388.529	21.07496
388.743	103.28953
388.957	-27.39383
389.171	-37.92881
389.385	23.18258
389.599	84.31387
389.813	44.26014
390.027	8.4297
390.241	-27.39383
390.455	73.77262
390.669	56.90779
390.883	-6.32202
391.097	67.44814
391.311	40.04444
391.525	-40.03573
391.738	-6.32202
391.952	80.0973
392.166	31.61332
392.38	-8.42931
392.594	16.85977
392.808	67.44814
393.022	65.34002
393.236	-40.03573
393.449	6.32224
393.663	-84.27527
393.877	31.61332
394.091	6.32224
394.305	-14.75104
394.518	-2.10736
394.732	75.88082
394.946	6.32224
395.16	-35.82187
395.373	0
395.587	10.53718
395.801	-61.10358
396.015	-58.9969
396.228	31.61332
396.442	-18.9654
396.656	-6.32202
396.869	42.15228
397.083	-2.10736
397.297	-31.6079
397.51	35.82884
397.724	56.90779
397.938	14.75222
398.151	50.58386
398.365	31.61332
398.578	23.18258
398.792	14.75222
399.005	56.90779
399.219	6.32224
399.433	6.32224
399.646	-10.53658
399.86	82.20557
400.073	27.39791
400.287	14.75222
400.5	-35.82187
400.714	-27.39383
400.927	33.72107
401.141	-27.39383
401.354	31.61332
401.567	31.61332
401.781	27.39791
401.994	6.32224
402.208	-18.9654
402.421	-16.85823
402.635	8.4297
402.848	10.53718
403.061	-25.28676
403.275	-6.32202
403.488	-18.9654
403.701	48.47593
403.915	33.72107
404.128	14.75222
404.341	10.53718
404.555	0
404.768	-8.42931
404.981	-29.50088
405.195	-86.38163
405.408	25.29023
405.621	10.53718
405.834	-27.39383
406.048	-23.17966
406.261	33.72107
406.474	18.96735
406.687	8.4297
406.9	67.44814
407.114	-67.42343
407.327	8.4297
407.54	-8.42931
407.753	48.47593
407.966	29.5056
408.179	73.77262
408.392	59.01582
408.605	14.75222
408.819	-29.50088
409.032	-16.85823
409.245	10.53718
409.458	27.39791
409.671	0
409.884	6.32224
410.097	-23.17966
410.31	82.20557
410.523	65.34002
410.736	42.15228
410.949	46.36803
411.162	48.47593
411.375	73.77262
411.588	-14.75104
411.801	56.90779
412.014	-23.17966
412.227	-56.89021
412.44	16.85977
412.653	-18.9654
412.865	0
413.078	6.32224
413.291	-40.03573
413.504	59.01582
413.717	27.39791
413.93	-21.07254
414.143	-23.17966
414.356	14.75222
414.568	52.69182
414.781	23.18258
414.994	56.90779
415.207	-8.42931
415.42	-33.71489
415.632	16.85977
415.845	-35.82187
416.058	23.18258
416.271	6.32224
416.483	-10.53658
416.696	4.2148
416.909	31.61332
417.121	18.96735
417.334	46.36803
417.547	2.10739
417.759	31.61332
417.972	92.74727
418.185	-2.10736
418.397	2.10739
418.61	0
418.823	14.75222
419.035	52.69182
419.248	73.77262
419.46	44.26014
419.673	33.72107
419.885	35.82884
420.098	0
420.311	-42.14263
420.523	-27.39383
420.736	35.82884
420.948	33.72107
421.161	-25.28676
421.373	27.39791
421.586	-42.14263
421.798	-61.10358
422.01	-86.38163
422.223	35.82884
422.435	18.96735
422.648	27.39791
422.86	33.72107
423.073	-58.9969
423.285	77.98905
423.497	25.29023
423.71	-6.32202
423.922	65.34002
424.134	14.75222
424.347	-10.53658
424.559	-2.10736
424.771	86.42218
424.984	40.04444
425.196	-8.42931
425.408	33.72107
425.621	40.04444
425.833	46.36803
426.045	-61.10358
426.257	-14.75104
426.47	18.96735
426.682	-42.14263
426.894	46.36803
427.106	-31.6079
427.318	-84.27527
427.531	-103.2316
427.743	37.93663
427.955	-25.28676
428.167	2.10739
428.379	-25.28676
428.591	59.01582
428.804	12.64469
429.016	-33.71489
429.228	-10.53658
429.44	23.18258
429.652	23.18258
429.864	14.75222
430.076	101.18103
430.288	48.47593
430.5	8.4297
430.712	35.82884
430.924	54.79979
431.136	-12.64382
431.348	-44.2495
431.56	-31.6079
431.772	52.69182
431.984	23.18258
432.196	-25.28676
432.408	61.12386
432.62	33.72107
432.832	-2.10736
433.044	40.04444
433.256	-52.67674
433.468	48.47593
433.679	-10.53658
433.891	31.61332
434.103	2.10739
434.315	-14.75104
434.527	-10.53658
434.739	-6.32202
434.95	31.61332
435.162	73.77262
435.374	33.72107
435.586	73.77262
435.798	-8.42931
436.009	23.18258
436.221	42.15228
436.433	25.29023
436.645	18.96735
436.856	18.96735
437.068	-14.75104
437.28	-2.10736
437.491	77.98905
437.703	48.47593
437.915	-2.10736
438.126	10.53718
438.338	-31.6079
438.55	-18.9654
438.761	35.82884
438.973	14.75222
439.184	16.85977
439.396	-18.9654
439.608	61.12386
439.819	16.85977
440.031	18.96735
440.242	48.47593
440.454	27.39791
440.665	48.47593
440.877	-8.42931
441.088	40.04444
441.3	77.98905
441.511	56.90779
441.723	2.10739
441.934	-21.07254
442.146	86.42218
442.357	8.4297
442.569	23.18258
442.78	65.34002
442.991	40.04444
443.203	2.10739
443.414	-33.71489
443.626	8.4297
443.837	25.29023
444.048	37.93663
444.26	50.58386
444.471	90.63889
444.682	6.32224
444.894	59.01582
445.105	-18.9654
445.316	-10.53658
445.528	77.98905
445.739	23.18258
445.95	0
446.161	65.34002
446.373	94.85568
446.584	-35.82187
446.795	46.36803
447.006	27.39791
447.217	-23.17966
447.429	0
447.64	65.34002
447.851	61.12386
448.062	67.44814
448.273	50.58386
448.484	-21.07254
448.695	46.36803
448.907	31.61332
449.118	-8.42931
449.329	40.04444
449.54	44.26014
449.751	33.72107
449.962	-6.32202
450.173	12.64469
450.384	-14.75104
450.595	-14.75104
450.806	23.18258
451.017	16.85977
451.228	75.88082
451.439	14.75222
451.65	-18.9654
451.861	27.39791
452.072	50.58386
452.283	14.75222
452.494	29.5056
452.705	109.61514
452.915	-14.75104
453.126	40.04444
453.337	-2.10736
453.548	67.44814
453.759	61.12386
453.97	65.34002
454.181	-31.6079
454.391	94.85568
454.602	-33.71489
454.813	44.26014
455.024	8.4297
455.235	-42.14263
455.445	37.93663
455.656	23.18258
455.867	-27.39383
456.078	56.90779
456.288	-6.32202
456.499	27.39791
456.71	65.34002
456.921	132.81075
457.131	27.39791
457.342	54.79979
457.553	54.79979
457.763	90.63889
457.974	33.72107
458.184	-40.03573
458.395	-12.64382
458.606	6.32224
458.816	-69.53
459.027	50.58386
459.237	-31.6079
459.448	-8.42931
459.659	6.32224
459.869	48.47593
460.08	27.39791
460.29	101.18103
460.501	-16.85823
460.711	40.04444
460.922	31.61332
461.132	61.12386
461.343	-12.64382
461.553	61.12386
461.764	84.31387
461.974	-23.17966
462.184	25.29023
462.395	33.72107
462.605	48.47593
462.816	63.23193
463.026	48.47593
463.236	23.18258
463.447	40.04444
463.657	75.88082
463.867	48.47593
464.078	48.47593
464.288	14.75222
464.498	84.31387
464.709	86.42218
464.919	18.96735
465.129	63.23193
465.339	2.10739
465.55	44.26014
465.76	99.07256
465.97	59.01582
466.18	48.47593
466.391	52.69182
466.601	65.34002
466.811	37.93663
467.021	56.90779
467.231	90.63889
467.441	86.42218
467.651	56.90779
467.862	27.39791
468.072	67.44814
468.282	103.28953
468.492	124.37568
468.702	67.44814
468.912	31.61332
469.122	103.28953
469.332	2.10739
469.542	12.64469
469.752	31.61332
469.962	56.90779
470.172	2.10739
470.382	77.98905
470.592	33.72107
470.802	59.01582
471.012	84.31387
471.222	143.35507
471.432	48.47593
471.642	33.72107
471.852	107.50658
472.062	109.61514
472.272	73.77262
472.482	141.24617
472.691	137.02842
472.901	111.72373
473.111	132.81075
473.321	94.85568
473.531	107.50658
473.741	67.44814
473.95	86.42218
474.16	65.34002
474.37	23.18258
474.58	160.22709
474.79	166.55444
474.999	141.24617
475.209	120.15828
475.419	115.94096
475.628	134.91958
475.838	65.34002
476.048	151.79091
476.258	187.64696
476.467	162.33619
476.677	122.26697
476.886	143.35507
477.096	234.05762
477.306	246.71673
477.515	191.86571
477.725	215.07028
477.935	225.6186
478.144	217.1799
478.354	208.74152
478.563	200.30345
478.773	172.88198
478.982	238.27725
479.192	234.05762
479.401	200.30345
479.611	236.16742
479.82	240.38709
480.03	261.48656
480.239	339.57079
480.449	299.47036
480.658	335.34939
480.868	394.45523
481.077	301.58075
481.287	284.69817
481.496	288.91871
481.705	409.23374
481.915	445.1277
482.124	310.02248
482.333	337.46008
482.543	288.91871
482.752	386.01073
482.961	352.2354
483.171	440.90465
483.38	405.01123
483.589	468.35561
483.799	478.91436
484.008	466.24391
484.217	386.01073
484.426	504.25687
484.636	512.70485
484.845	514.81688
485.054	481.02615
485.263	540.16233
485.472	491.58535
485.682	521.15305
485.891	563.39742
486.1	478.91436
486.309	645.78918
486.518	633.11228
486.727	628.88674
486.936	698.61419
487.146	607.75981
487.355	681.7094
487.564	666.91831
487.773	692.27481
487.982	816.96672
488.191	768.3538
488.4	721.85944
488.609	755.67302
488.818	664.80534
489.027	909.9786
489.236	812.73931
489.445	857.12892
489.654	825.42165
489.863	1007.23431
490.072	867.69844
490.281	850.78731
490.49	844.44577
490.698	971.29028
490.907	867.69844
491.116	996.66234
491.325	945.91919
491.534	952.26187
491.743	835.99052
491.952	1005.11991
492.16	1068.55471
492.369	1180.63408
492.578	1129.87959
492.787	1157.37131
492.996	1047.4092
493.204	1062.211
493.413	1163.71566
493.622	1172.17484
493.831	1083.35688
494.039	1284.26401
494.248	1193.32305
494.457	1392.12945
494.665	1265.22943
494.874	1383.66929
495.083	1269.45932
495.291	1413.2799
495.5	1315.9887
495.709	1485.19163
495.917	1349.82882
496.126	1413.2799
496.335	1506.3421
496.543	1404.81971
496.752	1538.06766
496.96	1567.67796
497.169	1502.11201
497.377	1508.45714
497.586	1574.02299
497.794	1743.21641
498.003	1478.84648
498.211	1713.60886
498.42	1527.49249
498.628	1609.97787
498.837	1595.17298
499.045	1882.78425
499.254	1629.01258
499.462	1692.46021
499.671	1755.90515
499.879	1730.52754
500.087	1887.01326
500.296	1764.36423
500.504	1848.95144
500.713	1920.84457
500.921	1823.57602
501.129	1933.53095
501.338	1918.73016
501.546	2087.86381
501.754	2001.188
501.962	2117.45765
502.171	2106.88859
502.379	2062.4965
502.587	1992.73122
502.795	2144.93631
503.004	2102.66091
503.212	2221.02386
503.42	2068.83842
503.628	2280.19531
503.837	2113.23005
504.045	2189.32203
504.253	2280.19531
504.461	2199.88952
504.669	2077.29422
504.877	2254.83699
505.085	2237.93071
505.294	2512.57999
505.502	2474.56218
505.71	2457.66422
505.918	2191.43555
506.126	2409.07873
506.334	2428.09112
506.542	2512.57999
506.75	2263.28991
506.958	2601.27366
507.166	2417.52879
507.374	2540.035
507.582	2377.38954
507.79	2643.50129
507.998	2417.52879
508.206	2584.38124
508.414	2626.61083
508.622	2677.2798
508.83	2578.04638
509.037	2685.72392
509.245	2474.56218
509.453	2873.55053
509.661	2569.59974
509.869	2755.37997
510.077	2491.45944
510.285	2860.89149
510.492	2696.27878
510.7	2854.56178
510.908	2694.16783
511.116	2770.15364
511.324	2592.82755
511.531	3021.20048
511.739	2820.80118
511.947	2867.22107
512.155	2719.49833
512.362	2922.07205
512.57	3016.98293
512.778	2972.69496
512.985	2791.25774
513.193	2960.04003
513.401	2814.47067
513.608	3065.48106
513.816	2903.08628
514.024	3259.38932
514.231	3014.87413
514.439	3014.87413
514.646	3073.91468
514.854	3234.10481
515.061	3082.34805
515.269	3204.60317
515.477	3128.72705
515.684	3333.12188
515.892	3181.42104
516.099	3354.18446
516.307	3082.34805
516.514	3526.83092
516.722	3002.22101
516.929	3461.5763
517.136	3272.03067
517.344	3495.25829
517.551	3406.83328
517.759	3465.78681
517.966	3480.52299
518.173	3417.36172
518.381	3427.88971
518.588	3592.06791
518.796	3345.75964
519.003	3545.77252
519.21	3368.92723
519.418	3571.02567
519.625	3528.93562
519.832	3726.6936
520.039	3613.10829
520.247	3745.61905
520.454	3606.79637
520.661	3823.40709
520.868	3646.76898
521.076	3943.18963
521.283	3747.72178
521.49	3741.41353
521.697	3539.45882
521.904	3966.29803
522.112	3764.54293
522.319	4071.30504
522.526	3747.72178
522.733	4010.40723
522.94	3968.39867
523.147	3869.64664
523.354	3991.50439
523.561	4050.30775
523.768	3941.08874
523.975	3781.36283
524.183	3943.18963
524.39	4178.35876
524.597	4228.71804
524.804	4314.72005
525.011	3985.20307
525.218	4151.07574
525.425	4153.17456
525.632	4243.40385
525.838	4096.49904
526.045	4453.08604
526.252	4056.60716
526.459	4327.30269
526.666	4094.39965
526.873	4467.75565
527.08	4341.98144
527.287	4404.87836
527.494	4369.23917
527.701	4522.23329
527.907	4478.23327
528.114	4461.46881
528.321	4444.70293
528.528	4702.32154
528.735	4394.3969
528.941	4792.30333
529.148	4427.93565
529.355	4606.01582
529.562	4580.8848
529.768	4629.04976
529.975	4413.26314
530.182	4788.11906
530.388	4731.62253
530.595	4798.57957
530.802	4459.37315
531.008	4857.14788
531.215	4832.04936
531.422	4825.77422
531.628	4748.36396
531.835	4901.06238
532.042	4869.69591
532.248	5026.47657
532.455	4612.29807
532.661	4903.15329
532.868	4907.33505
533.074	5084.97477
533.281	5064.08464
533.487	5151.8076
533.694	4988.86102
533.9	5308.35357
534.107	4821.59068
534.313	5155.98386
534.52	5172.68797
534.726	5274.96812
534.933	5070.35192
535.139	5143.45479
535.345	5168.51209
535.552	5479.35978
535.758	5243.66383
535.965	5377.19212
536.171	5218.6166
536.377	5320.87157
536.584	5281.22835
536.79	5352.16288
536.996	5498.11913
537.203	5543.96729
537.409	5237.40234
537.615	5539.79975
537.821	5443.92025
538.028	5700.1821
538.234	5239.48952
538.44	5687.6898
538.646	5423.07029
538.853	5633.54668
539.059	5439.75045
539.265	5341.73303
539.471	5648.12524
539.677	5668.94976
539.883	5783.44241
540.09	5666.86741
540.296	5625.21555
540.502	5841.70215
540.708	5643.96005
540.914	5949.84973
541.12	5829.21948
541.326	6057.93357
541.532	5654.37284
541.738	6089.09977
541.944	5889.54452
542.15	6084.94458
542.356	6045.46561
542.562	6143.10864
542.768	6001.82107
542.974	6012.21357
543.18	5972.71894
543.386	6165.95376
543.592	6049.62169
543.798	6080.7893
544.004	6109.87429
544.21	6354.83647
544.415	6066.24507
544.621	6273.91048
544.827	5854.18397
545.033	6298.81457
545.239	6363.13456
545.445	6354.83647
545.651	6257.30588
545.856	6479.26873
546.062	6356.91103
546.268	6406.69343
546.474	6205.40684
546.679	6099.48732
546.885	6284.28759
547.091	6275.98595
547.297	6346.538
547.502	6388.0266
547.708	6396.3232
547.914	6388.0266
548.119	6638.83441
548.325	6587.04239
548.531	6460.60923
548.736	6657.47601
548.942	6421.21077
549.147	6632.62013
549.353	6435.72697
549.559	6663.68946
549.764	6518.65483
549.97	6709.24845
550.175	6499.9993
550.381	6980.3027
550.586	6580.82638
550.792	6835.51313
550.997	6680.25765
551.203	6727.88302
551.408	6707.17783
551.614	6729.95341
551.819	6694.75361
552.025	6856.20416
552.23	6632.62013
552.435	7102.25382
552.641	6909.9902
552.846	7098.12116
553.052	6814.81982
553.257	7242.7113
553.462	7025.78514
553.668	7124.98186
553.873	6893.44228
554.078	7368.62306
554.283	7104.32012
554.489	7319.09375
554.694	7108.45265
554.899	6990.64058
555.105	7290.19582
555.31	7298.45281
555.515	7083.65615
555.72	7211.73685
555.925	7418.13981
556.131	7457.33169
556.336	7158.036
556.541	7440.8308
556.746	7314.96574
556.951	7414.01389
557.156	7378.94009
557.361	7261.29359
557.567	7376.87673
557.772	7706.74014
557.977	7269.55181
558.182	7519.19772
558.387	7546.00032
558.592	7574.8606
558.797	7727.33849
559.002	7762.35085
559.207	7529.50684
559.412	7502.70201
559.617	7603.71669
559.822	7642.87185
560.027	7537.75375
560.232	7624.32562
560.437	7513.01199
560.642	7576.92189
560.847	7671.71811
561.051	8081.30503
561.256	7543.93871
561.461	7867.35171
561.666	7597.53359
561.871	7904.39796
562.076	7809.71089
562.281	7982.5848
562.485	7638.75061
562.69	7770.58817
562.895	7747.93473
563.1	7780.88436
563.305	7605.77768
563.509	8132.70338
563.714	7661.41635
563.919	7986.69907
564.123	7982.5848
564.328	8015.49674
564.533	7999.04142
564.737	8159.42557
564.942	7879.70121
565.147	8288.87788
565.351	8138.87034
565.556	8013.43989
565.761	7974.35599
565.965	8023.72391
566.17	8130.64769
566.374	8105.9778
566.579	8112.14555
566.784	8157.37014
566.988	7992.87034
567.193	8214.91475
567.397	8050.45997
567.602	8262.17192
567.806	8040.17728
568.011	8214.91475
568.215	8260.11747
568.42	8253.95403
568.624	8239.57197
568.828	8062.79854
569.033	8196.41997
569.237	8467.51771
569.442	8368.97593
569.646	8426.46402
569.85	8190.25468
570.055	8633.70742
570.259	8381.29608
570.463	8566.01544
570.668	8393.61554
570.872	8444.93913
571.076	8405.9343
571.281	8506.51162
571.485	8621.40131
571.689	8578.32459
571.893	8514.71999
572.098	8598.83834
572.302	8596.78705
572.506	8475.72752
572.71	8623.45237
572.914	8775.17987
573.119	8662.41909
573.323	8656.2669
573.527	8639.86023
573.731	8705.47978
573.935	8746.4824
574.139	8820.26869
574.343	8713.68089
574.547	8902.22597
574.751	8799.77486
574.955	8873.54419
575.159	8646.01287
575.364	8844.8589
575.568	8557.80896
575.772	8885.83681
575.976	8641.91113
576.18	8935.00087
576.383	8920.66241
576.587	9188.85423
576.791	8943.19388
576.995	9008.72781
577.199	8846.90796
577.403	8828.46571
577.607	9143.83511
577.811	9139.74205
578.015	9131.55574
578.219	8953.43475
578.422	8965.72321
