Data from mixed_try1_USB4F045381__0__00104.txt Node

Date: Thu Apr 03 19:58:34 EDT 2025
User: mmckonesweet
Spectrometer: USB4F04538
Trigger mode: 4
Integration Time (sec): 2.700000E-3
Scans to average: 1
Electric dark correction enabled: true
Nonlinearity correction enabled: true
Boxcar width: 0
XAxis mode: Wavelengths
Number of Pixels in Spectrum: 3648
>>>>>Begin Spectral Data<<<<<
345.52	-62.68356
345.736	-62.68356
345.952	-62.68356
346.168	13.17157
346.384	-22.65289
346.6	11.06405
346.816	70.08331
347.032	2.63424
347.248	19.49425
347.464	-39.50901
347.68	27.92483
347.896	11.06405
348.112	-47.93647
348.328	-1.58052
348.544	21.60186
348.76	-52.15005
348.975	-22.65289
349.191	-24.75999
349.407	23.70949
349.623	6.8491
349.839	2.63424
350.055	19.49425
350.27	-12.11701
350.486	36.35578
350.702	4.74166
350.918	-5.79519
351.133	-33.18815
351.349	-28.97412
351.565	27.92483
351.781	36.35578
351.996	-3.68787
352.212	-24.75999
352.428	-1.58052
352.644	76.40788
352.859	-39.50901
353.075	32.14026
353.291	-69.00336
353.506	2.63424
353.722	4.74166
353.938	-26.86706
354.153	19.49425
354.369	11.06405
354.584	19.49425
354.8	-31.08114
355.016	-37.40208
355.231	-12.11701
355.447	19.49425
355.662	-5.79519
355.878	-26.86706
356.093	11.06405
356.309	-18.43861
356.524	49.00291
356.74	74.29967
356.955	-12.11701
357.171	84.84094
357.386	4.74166
357.602	76.40788
357.817	-1.58052
358.033	-1.58052
358.248	19.49425
358.464	-39.50901
358.679	-5.79519
358.895	13.17157
359.11	-31.08114
359.325	70.08331
359.541	-35.29512
359.756	-3.68787
359.972	19.49425
360.187	89.05761
360.402	-47.93647
360.618	13.17157
360.833	19.49425
361.048	-43.72279
361.264	-3.68787
361.479	86.94927
361.694	25.81715
361.909	6.8491
362.125	2.63424
362.34	70.08331
362.555	-5.79519
362.77	-28.97412
362.986	13.17157
363.201	40.5714
363.416	-22.65289
363.631	19.49425
363.847	-14.22423
364.062	-7.90249
364.277	74.29967
364.492	46.895
364.707	19.49425
364.922	-64.79019
365.138	2.63424
365.353	19.49425
365.568	-10.00976
365.783	-1.58052
365.998	65.86705
366.213	63.75895
366.428	6.8491
366.643	63.75895
366.858	-22.65289
367.073	-12.11701
367.288	2.63424
367.503	70.08331
367.718	55.32679
367.933	27.92483
368.148	2.63424
368.363	57.4348
368.578	-28.97412
368.793	89.05761
369.008	-50.04327
369.223	-52.15005
369.438	36.35578
369.653	-14.22423
369.868	-100.5989
370.083	-45.82964
370.298	21.60186
370.513	-5.79519
370.728	30.03253
370.943	19.49425
371.157	-20.54576
371.372	23.70949
371.587	-22.65289
371.802	-37.40208
372.017	21.60186
372.232	-45.82964
372.446	38.46358
372.661	55.32679
372.876	-69.00336
373.091	-31.08114
373.306	2.63424
373.52	53.21881
373.735	49.00291
373.95	44.78711
374.165	15.2791
374.379	95.38278
374.594	11.06405
374.809	-41.61591
375.023	40.5714
375.238	8.95656
375.453	-47.93647
375.667	-14.22423
375.882	23.70949
376.097	51.11085
376.311	-18.43861
376.526	-28.97412
376.741	44.78711
376.955	15.2791
377.17	-14.22423
377.384	-1.58052
377.599	6.8491
377.813	-5.79519
378.028	-28.97412
378.242	61.65088
378.457	-64.79019
378.672	-20.54576
378.886	11.06405
379.101	-31.08114
379.315	23.70949
379.53	23.70949
379.744	15.2791
379.958	11.06405
380.173	49.00291
380.387	34.24801
380.602	-73.21644
380.816	44.78711
381.031	-28.97412
381.245	78.51611
381.459	-10.00976
381.674	2.63424
381.888	23.70949
382.103	-22.65289
382.317	46.895
382.531	61.65088
382.746	-14.22423
382.96	61.65088
383.174	-18.43861
383.388	17.38667
383.603	-1.58052
383.817	19.49425
384.031	44.78711
384.246	2.63424
384.46	27.92483
384.674	38.46358
384.888	-14.22423
385.103	36.35578
385.317	65.86705
385.531	32.14026
385.745	61.65088
385.959	-22.65289
386.174	-39.50901
386.388	13.17157
386.602	61.65088
386.816	44.78711
387.03	40.5714
387.244	55.32679
387.458	-77.42941
387.672	36.35578
387.887	80.62436
388.101	61.65088
388.315	21.60186
388.529	17.38667
388.743	30.03253
388.957	44.78711
389.171	15.2791
389.385	27.92483
389.599	-10.00976
389.813	70.08331
390.027	46.895
390.241	25.81715
390.455	-54.2568
390.669	8.95656
390.883	89.05761
391.097	-1.58052
391.311	15.2791
391.525	36.35578
391.738	97.49122
391.952	17.38667
392.166	4.74166
392.38	4.74166
392.594	-3.68787
392.808	13.17157
393.022	-54.2568
393.236	61.65088
393.449	-7.90249
393.663	61.65088
393.877	32.14026
394.091	-14.22423
394.305	78.51611
394.518	-35.29512
394.732	6.8491
394.946	8.95656
395.16	-31.08114
395.373	38.46358
395.587	59.54283
395.801	27.92483
396.015	40.5714
396.228	-54.2568
396.442	86.94927
396.656	27.92483
396.869	63.75895
397.083	11.06405
397.297	-64.79019
397.51	-18.43861
397.724	44.78711
397.938	82.73264
398.151	97.49122
398.365	30.03253
398.578	-5.79519
398.792	30.03253
399.005	78.51611
399.219	53.21881
399.433	19.49425
399.646	23.70949
399.86	36.35578
400.073	44.78711
400.287	-43.72279
400.5	46.895
400.714	11.06405
400.927	27.92483
401.141	4.74166
401.354	44.78711
401.567	-5.79519
401.781	21.60186
401.994	-14.22423
402.208	59.54283
402.421	27.92483
402.635	2.63424
402.848	32.14026
403.061	27.92483
403.275	38.46358
403.488	72.19148
403.701	27.92483
403.915	44.78711
404.128	51.11085
404.341	44.78711
404.555	-31.08114
404.768	38.46358
404.981	103.81665
405.195	-22.65289
405.408	-1.58052
405.621	42.67924
405.834	76.40788
406.048	19.49425
406.261	19.49425
406.474	19.49425
406.687	-20.54576
406.9	-26.86706
407.114	44.78711
407.327	27.92483
407.54	15.2791
407.753	19.49425
407.966	80.62436
408.179	25.81715
408.392	27.92483
408.605	-3.68787
408.819	65.86705
409.032	36.35578
409.245	11.06405
409.458	-12.11701
409.671	95.38278
409.884	30.03253
410.097	-22.65289
410.31	27.92483
410.523	63.75895
410.736	4.74166
410.949	53.21881
411.162	57.4348
411.375	59.54283
411.588	-37.40208
411.801	27.92483
412.014	95.38278
412.227	2.63424
412.44	-20.54576
412.653	23.70949
412.865	89.05761
413.078	82.73264
413.291	6.8491
413.504	72.19148
413.717	103.81665
413.93	53.21881
414.143	59.54283
414.356	55.32679
414.568	67.97517
414.781	36.35578
414.994	53.21881
415.207	105.92518
415.42	91.16598
415.632	103.81665
415.845	49.00291
416.058	32.14026
416.271	122.79415
416.483	27.92483
416.696	124.90287
416.909	49.00291
417.121	57.4348
417.334	11.06405
417.547	95.38278
417.759	42.67924
417.972	95.38278
418.185	40.5714
418.397	13.17157
418.61	67.97517
418.823	63.75895
419.035	4.74166
419.248	19.49425
419.46	105.92518
419.673	95.38278
419.885	40.5714
420.098	74.29967
420.311	40.5714
420.523	129.12037
420.736	57.4348
420.948	70.08331
421.161	55.32679
421.373	67.97517
421.586	76.40788
421.798	86.94927
422.01	57.4348
422.223	36.35578
422.435	99.59967
422.648	65.86705
422.86	82.73264
423.073	101.70815
423.285	99.59967
423.497	122.79415
423.71	21.60186
423.922	97.49122
424.134	86.94927
424.347	97.49122
424.559	124.90287
424.771	78.51611
424.984	49.00291
425.196	156.53622
425.408	53.21881
425.621	171.30008
425.833	40.5714
426.045	120.68545
426.257	122.79415
426.47	156.53622
426.682	131.22915
426.894	141.77339
427.106	103.81665
427.318	78.51611
427.531	124.90287
427.743	131.22915
427.955	131.22915
428.167	129.12037
428.379	154.42718
428.591	112.25088
428.804	103.81665
429.016	99.59967
429.228	105.92518
429.44	158.64528
429.652	179.73703
429.864	143.8823
430.076	188.1743
430.288	205.04983
430.5	192.39306
430.712	213.48807
430.924	154.42718
431.136	198.72135
431.348	228.25576
431.56	173.40929
431.772	141.77339
431.984	137.55563
432.196	183.95562
432.408	287.336
432.62	131.22915
432.832	179.73703
433.044	156.53622
433.256	196.6119
433.468	215.59768
433.679	255.68401
433.891	211.37848
434.103	202.94032
434.315	314.77108
434.527	194.50247
434.739	245.1343
434.95	249.35413
435.162	255.68401
435.374	196.6119
435.586	281.00526
435.798	238.8047
436.009	238.8047
436.221	188.1743
436.433	274.6747
436.645	316.8816
436.856	232.47528
437.068	217.70731
437.28	323.21326
437.491	281.00526
437.703	297.88759
437.915	333.76638
438.126	289.44628
438.338	283.11549
438.55	289.44628
438.761	342.2092
438.973	308.43963
439.184	253.57403
439.396	344.31995
439.608	348.54149
439.819	394.98302
440.031	283.11549
440.242	340.09847
440.454	247.24421
440.665	359.09566
440.877	443.54405
441.088	399.20538
441.3	337.98775
441.511	378.09425
441.723	304.21876
441.934	367.53931
442.146	483.66592
442.357	456.21352
442.569	409.76156
442.78	437.20952
442.991	378.09425
443.203	504.78487
443.414	392.87187
443.626	504.78487
443.837	420.31815
444.048	504.78487
444.26	432.98659
444.471	447.76714
444.682	470.99526
444.894	509.00883
445.105	496.33711
445.316	578.71235
445.528	394.98302
445.739	445.65559
445.95	437.20952
446.161	536.46599
446.373	536.46599
446.584	445.65559
446.795	492.11332
447.006	544.91483
447.217	542.8026
447.429	542.8026
447.64	519.56899
447.851	498.44903
448.062	580.82481
448.273	582.93728
448.484	639.97888
448.695	563.92551
448.907	487.88959
449.118	534.35382
449.329	604.06272
449.54	610.4006
449.751	570.26265
449.962	629.41493
450.173	525.90526
450.384	620.96399
450.595	692.80309
450.806	737.18088
451.017	616.7386
451.228	631.5277
451.439	747.74772
451.65	711.82155
451.861	688.57688
452.072	669.55954
452.283	770.99567
452.494	923.1918
452.705	732.95422
452.915	866.113
453.126	821.7226
453.337	893.59466
453.548	838.63277
453.759	959.13317
453.97	876.6827
454.181	1062.73964
454.391	861.88518
454.602	931.6484
454.813	1007.76292
455.024	1007.76292
455.235	978.16178
455.445	1033.1363
455.656	1037.36528
455.867	1092.34404
456.078	1069.08335
456.288	1003.53411
456.499	1149.44094
456.71	1088.11478
456.921	1007.76292
457.131	1157.90001
457.342	1193.85176
457.553	1174.81834
457.763	1079.65631
457.974	1458.22473
458.184	1134.63772
458.395	1367.27778
458.606	1174.81834
458.816	1519.56111
459.027	1413.80866
459.237	1418.03876
459.448	1481.4903
459.659	1498.41068
459.869	1485.72039
460.08	1576.66675
460.29	1728.94142
460.501	1669.72509
460.711	1673.9549
460.922	1633.77123
461.132	1862.16753
461.343	1566.0917
461.553	1618.9665
461.764	1781.8109
461.974	1714.13757
462.184	1659.1505
462.395	1718.36726
462.605	1957.31734
462.816	1811.41673
463.026	1982.68866
463.236	1923.48759
463.447	2086.27838
463.657	2077.8227
463.867	2217.32542
464.078	2232.11905
464.288	2251.13879
464.498	2430.73166
464.709	2293.40225
464.919	2206.75828
465.129	2458.1923
465.339	2462.41685
465.55	2369.46688
465.76	2270.1578
465.97	2530.00359
466.18	2557.45736
466.391	2979.54948
466.601	2513.10799
466.811	2774.90219
467.021	2730.57984
467.231	2903.61368
467.441	2806.55736
467.651	3118.71405
467.862	2992.20357
468.072	3264.1299
468.282	3150.33281
468.492	3059.6828
468.702	3392.61918
468.912	3542.08955
469.122	3358.9233
469.332	3584.17729
469.542	3483.15436
469.752	3723.01347
469.962	3582.07308
470.172	3760.86341
470.382	3840.74805
470.592	4057.1321
470.802	3783.99083
471.012	3968.92383
471.222	4166.29171
471.432	4208.26106
471.642	4080.22826
471.852	4499.71069
472.062	4407.49864
472.272	4409.59484
472.482	4610.72753
472.691	4732.14572
472.901	4541.61116
473.111	4583.50276
473.321	5001.92282
473.531	5054.16102
473.741	5026.99896
473.95	5306.78876
474.16	5070.87419
474.37	5277.57658
474.58	5306.78876
474.79	5527.81753
474.999	5456.95028
475.209	5461.11969
475.419	5444.44147
475.628	5915.0207
475.838	5788.12468
476.048	6102.08412
476.258	5852.62379
476.467	6342.90731
476.677	6390.61933
476.886	6614.49396
477.096	6519.17301
477.306	6666.27833
477.515	6444.53982
477.725	6691.12973
477.935	6780.15343
478.144	6877.4101
478.354	6747.03328
478.563	7098.63775
478.773	7030.43614
478.982	7255.61586
479.192	7451.65967
479.401	7329.92936
479.611	7595.98779
479.82	7464.03478
480.03	7618.65838
480.239	7793.75385
480.449	7888.44831
480.658	8139.38425
480.868	8079.76288
481.077	8053.03057
481.287	7917.25967
481.496	8264.73994
481.705	8357.16847
481.915	8679.33676
482.124	8751.09473
482.333	8455.71556
482.543	8853.5673
482.752	8892.49505
482.961	8947.80233
483.171	9308.01308
483.38	8935.51294
483.589	9132.06739
483.799	9326.41884
484.008	9588.04683
484.217	9557.40088
484.426	9684.04804
484.636	9610.51828
484.845	9706.51146
485.054	9865.74491
485.263	10094.23099
485.472	10057.52216
485.682	10114.62282
485.891	10077.91652
486.1	10132.97426
486.309	10373.47943
486.518	10566.97287
486.727	10585.29788
486.936	10919.04836
487.146	10874.29536
487.355	10687.08523
487.564	10742.03775
487.773	11173.22442
487.982	11008.53793
488.191	11390.66771
488.4	11329.71402
488.609	11553.16802
488.818	11384.57274
489.027	11833.34252
489.236	11670.94321
489.445	11839.43142
489.654	11865.81578
489.863	12263.44743
490.072	12271.55935
490.281	12113.35594
490.49	12125.52704
490.698	12310.08941
490.907	12334.42287
491.116	12490.53929
491.325	12482.43031
491.534	12780.36995
491.743	12393.22464
491.952	12950.56524
492.16	12812.79107
492.369	12806.71222
492.578	13120.72408
492.787	13181.48689
492.996	13104.51996
493.204	13335.4014
493.413	13307.05059
493.622	13543.95846
493.831	13414.37445
494.039	13689.72298
494.248	13406.27493
494.457	13829.39828
494.665	13807.13216
494.874	13867.85713
495.083	13922.50745
495.291	14088.47105
495.5	14207.87434
495.709	14406.19043
495.917	14159.3044
496.126	14268.58517
496.335	14511.4131
496.543	14628.77269
496.752	14379.88413
496.96	14903.94814
497.169	14699.59136
497.377	14871.57523
497.586	14572.11683
497.794	15142.69541
498.003	14849.31878
498.211	15134.60233
498.42	14954.53055
498.628	15345.02291
498.837	15320.7435
499.045	15349.06948
499.254	15201.37026
499.462	15691.01248
499.671	15905.49798
499.879	15832.65245
500.087	15656.61493
500.296	15990.48652
500.504	16097.73748
500.713	15826.58206
500.921	15921.6861
501.129	16211.06399
501.338	16022.86373
501.546	16350.70587
501.754	16251.53902
501.962	16207.01652
502.171	16336.5389
502.379	16498.45281
502.587	16215.11146
502.795	16591.5593
503.004	16488.33281
503.212	16802.07857
503.42	16783.85954
503.628	16848.63923
503.837	16897.22568
504.045	17040.9694
504.253	17152.32959
504.461	17213.07511
504.669	16834.46845
504.877	17024.77225
505.085	17057.16672
505.294	17227.24944
505.502	17172.57781
505.71	17500.64027
505.918	17075.38892
506.126	17340.64928
506.334	17421.65496
506.542	17816.63072
506.75	17778.14037
506.958	17834.86343
507.166	17579.6304
507.374	17984.78742
507.582	17901.71906
507.79	18106.36162
507.998	18057.73039
508.206	18191.4713
508.414	17958.44803
508.622	18175.25944
508.83	17940.21342
509.037	18388.05906
509.245	18234.02857
509.453	18481.29862
509.661	18456.97448
509.869	18459.00147
510.077	18390.08592
510.285	18611.03675
510.492	18345.49584
510.7	18625.22782
510.908	18963.84354
511.116	18716.46071
511.324	18761.06635
511.531	18704.29586
511.739	18992.23554
511.947	19075.38812
512.155	18827.97841
512.362	19032.79693
512.57	18722.54318
512.778	19207.22941
512.985	19193.03028
513.193	19209.25787
513.401	19503.42857
513.608	19391.83634
513.816	19144.3491
514.024	19523.71942
514.231	19468.93508
514.439	20002.70485
514.646	19655.62009
514.854	19619.09198
515.061	19470.96408
515.269	19736.79851
515.477	19550.09814
515.684	19901.20538
515.892	20047.36796
516.099	20295.0821
516.307	20112.3361
516.514	20100.15425
516.722	20025.03615
516.929	20014.8855
517.136	19992.55443
517.344	19840.31073
517.551	20226.04072
517.759	20041.27741
517.966	19982.40412
518.173	20297.1128
518.381	20423.02455
518.588	20437.2414
518.796	20670.83336
519.003	20918.7041
519.21	20402.71511
519.418	20711.46367
519.625	20544.88996
519.832	21363.80561
520.039	21203.22141
520.247	21186.96112
520.454	21483.75193
520.661	21414.62862
520.868	21398.36499
521.076	21335.34582
521.283	21404.46382
521.49	21473.58645
521.697	21315.01788
521.904	21373.97001
522.112	21337.37863
522.319	22083.68822
522.526	21683.0153
522.733	21634.21261
522.94	21380.0687
523.147	21343.47711
523.354	21680.98181
523.561	22095.89378
523.768	22195.57754
523.975	22205.74986
524.183	21774.5264
524.39	22289.16633
524.597	22529.27728
524.804	22118.27099
525.011	22093.85951
525.218	22097.92805
525.425	22521.1371
525.632	22120.3053
525.838	22441.77339
526.045	22508.92695
526.252	22685.98674
526.459	22777.57981
526.666	22643.24572
526.873	23058.50847
527.08	22738.90632
527.287	23017.7902
527.494	22462.12254
527.701	23382.26526
527.907	22987.25237
528.114	23030.00554
528.321	22885.46507
528.528	23498.34864
528.735	23431.14124
528.941	23587.96373
529.148	23074.79615
529.355	23649.06831
529.562	23526.86188
529.768	23805.91574
529.975	23724.43436
530.182	23378.19235
530.388	23490.2021
530.595	23791.65616
530.802	23418.92207
531.008	24241.91895
531.215	24264.33375
531.422	24323.42887
531.628	24270.44693
531.835	23807.95284
532.042	24241.91895
532.248	24779.96074
532.455	24751.42384
532.661	24741.23221
532.868	24527.22206
533.074	24969.53911
533.281	24486.46136
533.487	24480.34734
533.694	24256.18287
533.9	25365.06676
534.107	24676.00718
534.313	25173.40901
534.52	25169.33139
534.726	25063.31647
534.933	25148.94344
535.139	25269.23551
535.345	25165.25378
535.552	25489.45038
535.758	25318.17003
535.965	25377.30087
536.171	25756.59462
536.377	25640.35214
536.584	25732.122
536.79	25707.64965
536.996	25756.59462
537.203	25358.94973
537.409	25426.23807
537.615	25766.79163
537.821	25754.55523
538.028	26111.47768
538.234	26015.61306
538.44	25938.10837
538.646	25642.39142
538.853	25944.22707
539.059	25982.97919
539.265	26050.28704
539.471	26531.6945
539.677	26497.0138
539.883	26237.94327
540.09	26327.697
540.296	26862.20338
540.502	26670.42181
540.708	26348.09602
540.914	27051.95726
541.12	26756.10983
541.326	27413.13424
541.532	27204.9933
541.738	26962.17971
541.944	26786.71333
542.15	27270.29096
542.356	26837.7199
542.562	27490.68035
542.768	26949.93753
542.974	27213.15543
543.18	27519.25043
543.386	27843.74154
543.592	27707.00261
543.798	27949.87089
544.004	27807.00519
544.21	27929.46116
544.415	27792.71893
544.621	27907.01059
544.827	27323.3463
545.033	27778.43274
545.239	27937.62504
545.445	28600.99935
545.651	28015.18279
545.856	28637.7434
546.062	28043.75711
546.268	28388.70711
546.474	27915.17441
546.679	27676.39014
546.885	27766.18747
547.091	27884.56015
547.297	28170.30317
547.502	28288.68881
547.708	28102.94748
547.914	28137.64572
548.119	28894.96124
548.325	28543.84262
548.531	28260.11263
548.736	28188.67312
548.942	28396.87198
549.147	28476.48039
549.353	28539.76003
549.559	28839.84174
549.764	29156.2788
549.97	28609.16467
550.175	29086.86467
550.381	29621.79307
550.586	28774.51591
550.792	29732.05454
550.997	29166.48686
551.203	28870.46359
551.408	29015.41019
551.614	29221.61085
551.819	29505.40936
552.025	29830.06741
552.23	29762.68329
552.435	29331.8611
552.641	29930.12483
552.846	29917.87276
553.052	30122.07931
553.257	29881.11678
553.462	30056.73197
553.668	29825.98349
553.873	29983.21762
554.078	30120.03719
554.283	30089.40549
554.489	30499.89242
554.694	30160.87985
554.899	30111.86871
555.105	30689.83617
555.31	30326.29747
555.515	30032.22702
555.72	30493.76539
555.925	30236.44002
556.131	30334.46645
556.336	30503.97712
556.541	30730.68577
556.746	31071.80132
556.951	31141.25488
557.156	30550.95148
557.361	30642.8598
557.567	30581.58729
557.772	30892.04694
557.977	31286.2959
558.182	30975.79476
558.387	31055.45955
558.592	31057.50226
558.797	31122.86995
559.002	30949.24032
559.207	31173.93951
559.412	31077.9295
559.617	30973.7521
559.822	31539.62608
560.027	31175.98231
560.232	30783.79104
560.437	30814.42911
560.642	31137.16933
560.847	31286.2959
561.051	31096.31414
561.256	31039.11787
561.461	31842.02208
561.666	31406.82892
561.871	31895.1498
562.076	31725.55415
562.281	31786.85233
562.485	31094.2714
562.69	31525.32451
562.895	31423.17281
563.1	31899.2366
563.305	31361.88375
563.509	32058.62777
563.714	31294.46745
563.919	31723.51091
564.123	31893.1064
564.328	31905.36681
564.533	31772.54927
564.737	31135.12656
564.942	31889.01961
565.147	32281.38708
565.351	32107.6736
565.556	31788.89563
565.761	32244.59944
565.965	31676.51677
566.17	32087.2377
566.374	32436.72036
566.579	32540.96436
566.784	32312.04397
566.988	32401.97366
567.193	32132.19696
567.397	32375.40308
567.602	32622.72856
567.806	32201.68139
568.011	32565.49323
568.215	33002.98341
568.42	32577.75779
568.624	32694.27534
568.828	32855.77764
569.033	32708.58505
569.237	32992.76035
569.442	32927.33432
569.646	32254.81816
