Data from mixed_try1_USB4F045381__5__00109.txt Node

Date: Thu Apr 03 19:58:50 EDT 2025
User: mmckonesweet
Spectrometer: USB4F04538
Trigger mode: 4
Integration Time (sec): 2.700000E-3
Scans to average: 1
Electric dark correction enabled: true
Nonlinearity correction enabled: true
Boxcar width: 0
XAxis mode: Wavelengths
Number of Pixels in Spectrum: 3648
>>>>>Begin Spectral Data<<<<<
345.52	-41.44034
345.736	-41.44034
345.952	-41.44034
346.168	-3.51226
346.384	-24.5844
346.6	-33.01256
346.816	-5.61958
347.032	80.80005
347.248	-33.01256
347.464	-47.7609
347.68	11.23968
347.896	17.5623
348.112	19.66988
348.328	0.70246
348.544	-20.37016
348.76	-11.94141
348.975	21.7775
349.191	-35.11954
349.407	0.70246
349.623	-20.37016
349.839	-47.7609
350.055	-7.72688
350.27	-33.01256
350.486	25.99279
350.702	-14.04863
350.918	9.13219
351.133	-39.33343
351.349	-3.51226
351.565	-24.5844
351.781	-22.47729
351.996	21.7775
352.212	13.34719
352.428	-30.90556
352.644	-1.40491
352.859	36.53143
353.075	36.53143
353.291	17.5623
353.506	-73.04089
353.722	55.50246
353.938	17.5623
354.153	17.5623
354.369	-30.90556
354.584	4.91728
354.8	13.34719
355.016	-60.40135
355.231	-3.51226
355.447	-79.36032
355.662	9.13219
355.878	53.39447
356.093	-28.79853
356.309	25.99279
356.524	-33.01256
356.74	13.34719
356.955	-9.83416
357.171	-49.86771
357.386	-20.37016
357.602	-51.97449
357.817	-37.2265
358.033	-33.01256
358.248	-28.79853
358.464	-62.50801
358.679	-30.90556
358.895	118.75249
359.11	9.13219
359.325	-22.47729
359.541	17.5623
359.756	-60.40135
359.972	44.96277
360.187	-9.83416
360.402	-41.44034
360.618	-41.44034
360.833	-16.15583
361.048	-37.2265
361.264	-43.54722
361.479	97.66692
361.694	-43.54722
361.909	15.45473
362.125	-54.08124
362.34	-56.18797
362.555	-3.51226
362.77	21.7775
362.986	-28.79853
363.201	-24.5844
363.416	42.8549
363.631	-70.93437
363.847	25.99279
364.062	0.70246
364.277	2.80986
364.492	-11.94141
364.707	-16.15583
364.922	42.8549
365.138	-16.15583
365.353	-41.44034
365.568	-16.15583
365.783	0.70246
365.998	-16.15583
366.213	-33.01256
366.428	-3.51226
366.643	2.80986
366.858	15.45473
367.073	72.36716
367.288	-56.18797
367.503	0.70246
367.718	-26.69148
367.933	-20.37016
368.148	0.70246
368.363	28.10047
368.578	2.80986
368.793	-7.72688
369.008	-1.40491
369.223	42.8549
369.438	-3.51226
369.653	40.74705
369.868	-24.5844
370.083	-33.01256
370.298	25.99279
370.513	51.28651
370.728	-73.04089
370.943	13.34719
371.157	-5.61958
371.372	-24.5844
371.587	-1.40491
371.802	-33.01256
372.017	-30.90556
372.232	34.42366
372.446	19.66988
372.661	2.80986
372.876	21.7775
373.091	38.63923
373.306	-11.94141
373.52	21.7775
373.735	59.7185
373.95	-30.90556
374.165	-5.61958
374.379	-7.72688
374.594	-60.40135
374.809	9.13219
375.023	21.7775
375.238	-26.69148
375.453	2.80986
375.667	-7.72688
375.882	-28.79853
376.097	-37.2265
376.311	61.82655
376.526	59.7185
376.741	9.13219
376.955	51.28651
377.17	32.3159
377.384	-1.40491
377.599	80.80005
377.813	23.88513
378.028	34.42366
378.242	80.80005
378.457	68.15085
378.672	4.91728
378.886	25.99279
379.101	-47.7609
379.315	51.28651
379.53	-7.72688
379.744	-5.61958
379.958	80.80005
380.173	-18.26301
380.387	61.82655
380.602	-51.97449
380.816	19.66988
381.031	-24.5844
381.245	-47.7609
381.459	-7.72688
381.674	25.99279
381.888	17.5623
382.103	13.34719
382.317	53.39447
382.531	-28.79853
382.746	23.88513
382.96	25.99279
383.174	2.80986
383.388	9.13219
383.603	-22.47729
383.817	25.99279
384.031	19.66988
384.246	70.25899
384.46	9.13219
384.674	-33.01256
384.888	-5.61958
385.103	-16.15583
385.317	-1.40491
385.531	95.55848
385.745	19.66988
385.959	0.70246
386.174	36.53143
386.388	19.66988
386.602	85.01664
386.816	-37.2265
387.03	-14.04863
387.244	9.13219
387.458	-16.15583
387.672	51.28651
387.887	-47.7609
388.101	-60.40135
388.315	32.3159
388.529	25.99279
388.743	11.23968
388.957	-18.26301
389.171	40.74705
389.385	-7.72688
389.599	28.10047
389.813	146.16698
390.027	-14.04863
390.241	51.28651
390.455	-64.61464
390.669	4.91728
390.883	-5.61958
391.097	36.53143
391.311	19.66988
391.525	-16.15583
391.738	32.3159
391.952	17.5623
392.166	9.13219
392.38	78.6918
392.594	-24.5844
392.808	-16.15583
393.022	30.20817
393.236	23.88513
393.449	61.82655
393.663	-24.5844
393.877	25.99279
394.091	21.7775
394.305	30.20817
394.518	9.13219
394.732	-33.01256
394.946	70.25899
395.16	25.99279
395.373	38.63923
395.587	0.70246
395.801	17.5623
396.015	30.20817
396.228	63.93463
396.442	91.34168
396.656	0.70246
396.869	-7.72688
397.083	25.99279
397.297	63.93463
397.51	30.20817
397.724	-45.65407
397.938	9.13219
398.151	21.7775
398.365	4.91728
398.578	-14.04863
398.792	42.8549
399.005	38.63923
399.219	2.80986
399.433	32.3159
399.646	13.34719
399.86	78.6918
400.073	47.07066
400.287	110.318
400.5	-37.2265
400.714	47.07066
400.927	-20.37016
401.141	55.50246
401.354	-7.72688
401.567	13.34719
401.781	34.42366
401.994	25.99279
402.208	53.39447
402.421	4.91728
402.635	61.82655
402.848	4.91728
403.061	17.5623
403.275	2.80986
403.488	36.53143
403.701	34.42366
403.915	106.10089
404.128	-49.86771
404.341	13.34719
404.555	-49.86771
404.768	-7.72688
404.981	17.5623
405.195	13.34719
405.408	97.66692
405.621	-22.47729
405.834	28.10047
406.048	55.50246
406.261	42.8549
406.474	-37.2265
406.687	-24.5844
406.9	51.28651
407.114	44.96277
407.327	4.91728
407.54	51.28651
407.753	-24.5844
407.966	-64.61464
408.179	38.63923
408.392	42.8549
408.605	36.53143
408.819	-3.51226
409.032	42.8549
409.245	-49.86771
409.458	76.58356
409.671	59.7185
409.884	42.8549
410.097	17.5623
410.31	42.8549
410.523	-24.5844
410.736	93.45007
410.949	-64.61464
411.162	72.36716
411.375	61.82655
411.588	44.96277
411.801	47.07066
412.014	110.318
412.227	4.91728
412.44	38.63923
412.653	59.7185
412.865	87.12496
413.078	25.99279
413.291	4.91728
413.504	61.82655
413.717	68.15085
413.93	47.07066
414.143	40.74705
414.356	87.12496
414.568	-3.51226
414.781	47.07066
414.994	70.25899
415.207	53.39447
415.42	51.28651
415.632	36.53143
415.845	66.04272
416.058	32.3159
416.271	59.7185
416.483	59.7185
416.696	44.96277
416.909	51.28651
417.121	152.49392
417.334	97.66692
417.547	-24.5844
417.759	85.01664
417.972	101.88386
418.185	63.93463
418.397	76.58356
418.61	89.23331
418.823	68.15085
419.035	120.86117
419.248	51.28651
419.46	78.6918
419.673	78.6918
419.885	32.3159
420.098	55.50246
420.311	135.62252
420.523	139.84024
420.736	72.36716
420.948	30.20817
421.161	19.66988
421.373	57.61047
421.586	44.96277
421.798	23.88513
422.01	87.12496
422.223	38.63923
422.435	13.34719
422.648	78.6918
422.86	42.8549
423.073	93.45007
423.285	70.25899
423.497	80.80005
423.71	93.45007
423.922	103.99236
424.134	127.18734
424.347	122.96987
424.559	76.58356
424.771	129.2961
424.984	51.28651
425.196	127.18734
425.408	133.51369
425.621	13.34719
425.833	152.49392
426.045	32.3159
426.257	154.60294
426.47	110.318
426.682	70.25899
426.894	76.58356
427.106	118.75249
427.318	95.55848
427.531	61.82655
427.743	144.05805
427.955	87.12496
428.167	188.35008
428.379	118.75249
428.591	118.75249
428.804	198.89714
429.016	213.66387
429.228	118.75249
429.44	209.44471
429.652	184.1314
429.864	118.75249
430.076	70.25899
430.288	118.75249
430.5	257.96985
430.712	127.18734
430.924	137.73137
431.136	177.80353
431.348	133.51369
431.56	209.44471
431.772	201.00661
431.984	146.16698
432.196	190.45945
432.408	118.75249
432.62	196.78769
432.832	182.02209
433.044	158.82104
433.256	224.21213
433.468	144.05805
433.679	247.42003
433.891	289.62213
434.103	236.87069
434.315	222.10244
434.527	188.35008
434.739	205.22562
434.95	163.03922
435.162	291.73244
435.374	190.45945
435.586	293.84276
435.798	264.29997
436.009	293.84276
436.221	323.38914
436.433	291.73244
436.645	207.33515
436.856	257.96985
437.068	262.18991
437.28	272.74039
437.491	222.10244
437.703	238.98052
437.915	226.32184
438.126	329.72097
438.338	274.85054
438.55	243.20024
438.761	262.18991
438.973	376.15915
439.184	295.95309
439.396	380.38121
439.608	264.29997
439.819	314.94696
440.031	262.18991
440.242	302.28422
440.454	249.52996
440.665	317.05747
440.877	405.71498
441.088	338.16365
441.3	397.27012
441.511	314.94696
441.723	283.29134
441.934	333.94227
442.146	365.60428
442.357	416.27141
442.569	424.71685
442.78	359.27157
442.991	371.93715
443.203	393.0478
443.414	447.94311
443.626	414.16009
443.837	405.71498
444.048	466.9478
444.26	397.27012
444.471	439.49697
444.682	386.71443
444.894	424.71685
445.105	266.41005
445.316	481.73009
445.528	492.28931
445.739	456.38949
445.95	431.05109
446.161	431.05109
446.373	530.30552
446.584	602.12617
446.795	464.83611
447.006	542.97862
447.217	450.05468
447.429	494.4012
447.64	595.78844
447.851	523.96917
448.062	597.901
448.273	663.39671
448.484	471.17124
448.695	530.30552
448.907	523.96917
449.118	570.43868
449.329	549.31535
449.54	709.88445
449.751	441.60848
449.962	616.91466
450.173	473.28298
450.384	642.26777
450.595	737.357
450.806	692.97918
451.017	557.76452
451.228	726.79042
451.439	692.97918
451.65	676.07463
451.861	650.7192
452.072	661.28376
452.283	815.55758
452.494	726.79042
452.705	625.3655
452.915	802.8755
453.126	724.67713
453.337	752.15065
453.548	910.6833
453.759	984.68097
453.97	802.8755
454.181	893.77083
454.391	714.11087
454.602	853.60579
454.813	936.05293
455.024	1016.39682
455.235	840.92273
455.445	906.45513
455.656	1041.77049
455.867	832.46754
456.078	900.11294
456.288	974.10935
456.499	971.99504
456.71	1141.15816
456.921	1014.28238
457.131	1107.32284
457.342	1058.68673
457.553	1065.03042
457.763	1160.19102
457.974	1327.2687
458.184	1141.15816
458.395	1246.90003
458.606	1115.78156
458.816	1304.00377
459.027	1242.6702
459.237	1217.29145
459.448	1299.7738
459.659	1259.5896
459.869	1458.40099
460.08	1397.06455
460.29	1481.66655
460.501	1608.56788
460.711	1576.843
460.922	1475.3214
461.132	1597.99297
461.343	1562.03792
461.553	1617.02778
461.764	1699.5098
461.974	1504.93207
462.184	1636.06243
462.395	1784.10186
462.605	1820.0516
462.816	1762.95439
463.026	1754.4953
463.236	1847.54171
463.447	1982.86484
463.657	1866.57286
463.867	2135.07233
464.078	2149.86823
464.288	2118.16225
464.498	2261.8811
464.709	2257.65464
464.919	2069.54308
465.129	2215.38813
465.339	2249.20163
465.55	2335.83801
465.76	2299.91753
465.97	2418.23295
466.18	2447.80676
466.391	2764.52566
466.601	2582.9735
466.811	2783.51973
467.021	2671.65027
467.231	2865.81451
467.441	2566.08025
467.651	2943.86907
467.862	2804.62297
468.072	3146.29284
468.282	3215.84227
468.492	3059.85851
468.702	3239.02143
468.912	3257.98469
469.122	3316.97273
469.332	3304.33356
469.542	3599.08158
469.752	3643.26288
469.962	3493.85496
470.172	3803.08668
470.382	3603.28968
470.592	3639.05549
470.802	3805.18887
471.012	3897.66592
471.222	3920.77914
471.432	3948.09161
471.642	4122.38975
471.852	4212.63237
472.062	4281.86175
472.272	4191.6492
472.482	4361.55147
472.691	4682.08732
472.901	4267.17867
473.111	4369.93804
473.321	4617.18413
473.531	4941.48266
473.741	4700.92614
473.95	4866.21043
474.16	4742.78365
474.37	4970.74716
474.58	5185.91101
474.79	5217.22499
474.999	5196.34959
475.209	5165.03211
475.419	5296.53024
475.628	5400.82775
475.838	5507.15073
476.048	5300.70327
476.258	5767.48711
476.467	5956.7801
476.677	6170.79934
476.886	6253.8464
477.096	6214.40372
477.306	6314.03208
477.515	6185.33528
477.725	6436.41819
477.935	6293.28062
478.144	6724.43231
478.354	6604.308
478.563	6743.06537
478.773	6660.23757
478.982	7051.27811
479.192	6995.46472
479.401	7276.43339
479.611	7305.33337
479.82	7181.4459
480.03	7484.8301
480.239	7633.2555
480.449	7501.32731
480.658	7647.67985
480.868	7833.04366
481.077	8067.59667
481.287	7898.91005
481.496	8003.84102
481.705	8211.48991
481.915	8503.09138
482.124	8232.03812
482.333	8371.7138
482.543	8531.81979
482.752	8812.7545
482.961	8763.56466
483.171	8997.12416
483.38	8732.81567
483.589	8972.54985
483.799	9083.11439
484.008	8937.73191
484.217	9072.87907
484.426	9445.17212
484.636	9316.36401
484.845	9387.93209
485.054	9422.68649
485.263	9580.04517
485.472	9723.0175
485.682	9680.13376
485.891	9833.25918
486.1	9790.39264
486.309	10000.58037
486.518	10171.88239
486.727	10339.01173
486.936	10412.3572
487.146	10186.1531
487.355	10514.19795
487.564	10620.07868
487.773	11122.57222
487.982	10575.28712
488.191	10776.80258
488.4	10856.15525
488.609	11059.54413
488.818	11110.37404
489.027	11098.17548
489.236	11073.77719
489.445	11514.74898
489.654	11530.99709
489.863	11638.62577
490.072	11600.04488
490.281	11833.51166
490.49	11683.2943
490.698	11835.5413
490.907	11906.57347
491.116	12314.31404
491.325	12389.3385
491.534	12294.03553
491.743	12225.08327
491.952	12026.29074
492.16	12310.25839
492.369	12685.29336
492.578	12533.27864
492.787	12660.9733
492.996	12644.75946
493.204	13019.61208
493.413	13062.15149
493.622	13242.41439
493.831	12796.74955
494.039	13238.36393
494.248	13155.32564
494.457	13349.74525
494.665	13481.36185
494.874	13444.91582
495.083	13274.81742
495.291	13639.28099
495.5	13653.45219
495.709	13872.07404
495.917	13718.23277
496.126	13985.4204
496.335	13691.91606
496.543	13969.22856
496.752	13959.10858
496.96	13979.34848
497.169	14143.2828
497.377	14371.95847
497.586	14220.18529
497.794	14359.81697
498.003	14165.54435
498.211	14410.40615
498.42	14371.95847
498.628	14554.07445
498.837	14958.74574
499.045	14958.74574
499.254	14616.80084
499.462	15074.07276
499.671	14829.25418
499.879	15177.25962
500.087	15375.54083
500.296	15209.63195
500.504	15215.70176
500.713	15274.3767
500.921	15369.47096
501.129	15347.2148
501.338	15211.65522
501.546	15942.08998
501.754	15573.82573
501.962	15507.05571
502.171	15909.71363
502.379	15921.85472
502.587	15919.8312
502.795	16245.63636
503.004	15699.27468
503.212	16184.92423
503.42	15998.74942
503.628	16217.30384
503.837	16051.36273
504.045	16047.31552
504.253	16520.88566
504.461	16334.68371
504.669	16334.68371
504.877	16729.37232
505.085	16796.17423
505.294	16822.49087
505.502	16650.42794
505.71	16644.35544
505.918	16877.14985
506.126	16885.24763
506.334	16680.79075
506.542	17057.33545
506.75	16767.83371
506.958	17000.64557
507.166	16856.90557
507.374	16956.105
507.582	17051.26143
507.79	17247.66748
507.998	17138.32473
508.206	17573.72285
508.414	17227.41818
508.622	17735.76864
508.83	17462.32842
509.037	17436.00023
509.245	17306.3921
509.453	17549.41779
509.661	17810.72204
509.869	17830.98051
510.077	17901.88789
510.285	17806.67038
510.492	17849.21344
510.7	17997.1131
510.908	17845.16165
511.116	17828.95465
511.324	18033.5844
511.531	18183.53421
511.739	18076.13572
511.947	18451.06245
512.155	18284.863
512.362	18420.65821
512.57	18349.7183
512.778	18499.71102
512.985	18331.47736
513.193	18153.13738
513.401	18538.22604
513.608	18560.52484
513.816	18361.8791
514.024	18619.31485
514.231	18246.35697
514.439	18562.55203
514.646	18787.5941
514.854	18968.06849
515.061	18724.73964
515.269	18988.34849
515.477	18895.06379
515.684	19199.28463
515.892	19130.31989
516.099	19568.52985
516.307	19227.68326
516.514	19501.56859
516.722	19359.54456
516.929	19452.87235
517.136	19659.84797
517.344	19495.48143
517.551	19249.99702
517.759	19469.10417
517.966	19566.50065
518.173	19351.42952
518.381	19836.42037
518.588	19836.42037
518.796	19846.56918
519.003	19844.53941
519.21	19655.7892
519.418	20006.93423
519.625	20096.26285
519.832	20142.9606
520.039	20242.45453
520.247	20114.53562
520.454	20268.85257
520.661	20675.0656
520.868	20165.29509
521.076	20892.45804
521.283	20311.49706
521.49	20478.03137
521.697	20675.0656
521.904	20874.17087
522.112	20605.99759
522.319	20971.7063
522.526	20821.34314
522.733	21079.41266
522.94	20872.13898
523.147	20882.29846
523.354	21052.99306
523.561	21410.7321
523.768	21288.76155
523.975	21315.18728
524.183	21105.83296
524.39	21203.39079
524.597	21213.5536
524.804	21388.36976
525.011	21193.22808
525.218	21402.60029
525.425	21849.94423
525.632	21555.0825
525.838	21900.7907
526.045	21870.28253
526.252	22000.45673
526.459	22374.79332
526.666	21736.05688
526.873	21951.63957
527.08	22244.57504
527.287	22338.16792
527.494	21880.45183
527.701	22586.42971
527.907	22368.68901
528.114	22283.23203
528.321	22610.85178
528.528	22480.60666
528.735	22586.42971
528.941	22500.9565
529.148	22537.5871
529.355	22543.69232
529.562	22250.67869
529.768	22800.13993
529.975	22183.54042
530.182	22812.3531
530.388	22633.23912
530.595	22975.2071
530.802	22781.8204
531.008	23166.58797
531.215	22879.52774
531.422	23571.83936
531.628	23343.74277
531.835	23256.18046
532.042	23307.08806
532.248	23516.84823
532.455	23675.71755
532.661	23470.00571
532.868	23616.6486
533.074	23596.28058
533.281	23616.6486
533.487	23887.57157
533.694	23549.4353
533.9	24276.72995
534.107	23441.49367
534.313	24270.61674
534.52	24003.69718
534.726	24134.09474
534.933	24111.68185
535.139	24119.83195
535.345	24009.80931
535.552	24460.13728
535.758	24504.97339
535.965	24584.45859
536.171	24688.40654
536.377	24651.71829
536.584	24266.54129
536.79	24235.97568
536.996	24988.05636
537.203	24855.55182
537.409	24920.78359
537.615	24884.09043
537.821	24513.12554
538.028	25067.56374
538.234	24971.74758
538.44	25092.02825
538.646	24824.97526
538.853	25043.09956
539.059	24690.44479
539.265	25287.75572
539.471	25571.18747
539.677	25467.18991
539.883	25422.32985
540.09	25538.56022
540.296	25430.48615
540.502	25597.69749
540.708	25418.25171
540.914	25593.61901
541.12	25924.00144
541.326	26042.29838
541.532	25746.56761
541.738	25989.26797
541.944	25840.38144
542.15	25844.46039
542.356	25567.10904
542.562	26217.71513
542.768	25964.7928
542.974	26331.94678
543.18	26644.06987
543.386	26529.82445
543.592	26658.35089
543.798	26901.13933
544.004	26568.58575
544.21	26678.75247
544.415	26285.02958
544.621	26517.58416
544.827	26597.14706
545.033	26886.85709
545.239	26768.52121
545.445	27299.02916
545.651	26837.88992
545.856	27333.7194
546.062	27046.00602
546.268	27235.77145
546.474	27141.90752
546.679	26831.76909
546.885	26731.79729
547.091	26758.32007
547.297	26831.76909
547.502	27182.71758
547.708	27309.23213
547.914	27129.66461
548.119	27664.3153
548.325	27419.42629
548.531	26986.83426
548.736	27248.01478
548.942	27401.06034
549.147	27286.78564
549.353	27468.40267
549.559	28041.88617
549.764	27547.99081
549.97	27456.15851
550.175	28027.59899
550.381	27925.54931
550.586	27511.25759
550.792	28311.31177
550.997	28041.88617
551.203	28197.00766
551.408	28546.05403
551.614	28333.76476
551.819	28382.75357
552.025	28811.43168
552.23	28584.83888
552.435	28346.01191
552.641	28833.88752
552.846	28633.83083
553.052	28407.2482
553.257	28935.96112
553.462	28646.07891
553.668	29050.28662
553.873	28984.95736
554.078	29158.49055
554.283	29268.73906
554.489	29131.94969
554.694	28982.91584
554.899	28862.46787
555.105	28780.81028
555.31	29229.94757
555.515	29323.86445
555.72	29027.82957
555.925	28850.21912
556.131	29495.37058
556.336	29266.69739
556.541	29679.13545
556.746	29693.42864
556.951	29564.79184
557.156	29738.35043
557.361	29579.08461
557.567	29748.56001
557.772	29820.02778
557.977	29832.27953
558.182	29538.24827
558.387	29485.16167
558.592	29830.23757
558.797	29932.33702
559.002	29728.14089
559.207	29899.66489
559.412	29760.81153
559.617	29960.92536
559.822	29746.51809
560.027	29871.07702
560.232	30246.82116
560.437	30195.76667
560.642	30199.851
560.847	29893.5389
561.051	29932.33702
561.256	29956.8413
561.461	30195.76667
561.666	30257.03215
561.871	30263.15876
562.076	30275.412
562.281	30373.43954
562.485	29895.5809
562.69	30050.77589
562.895	30761.49352
563.1	30708.38863
563.305	30181.47154
563.509	30886.08936
563.714	30661.41198
563.919	30824.81208
564.123	30806.42914
564.328	30563.37597
564.533	30473.51222
564.737	30534.78269
564.942	31233.35163
565.147	31110.78362
565.351	31000.47699
565.556	30516.40143
565.761	30857.49315
565.965	30481.68155
566.17	30690.00638
566.374	31223.13742
566.579	30884.04677
566.784	31035.2027
566.988	30969.83701
567.193	31206.79476
567.397	31108.74087
567.602	31425.38605
567.806	30955.53847
568.011	31478.50446
568.215	31588.83092
568.42	31249.69444
568.624	31225.18026
568.828	31560.22729
569.033	31445.81608
569.237	31829.9323
569.442	31829.9323
569.646	31521.40862
569.85	31658.29828
570.055	31413.12811
