Data from mixed_try1_USB4F045381__18__00122.txt Node

Date: Thu Apr 03 20:00:25 EDT 2025
User: mmckonesweet
Spectrometer: USB4F04538
Trigger mode: 4
Integration Time (sec): 2.700000E-3
Scans to average: 1
Electric dark correction enabled: true
Nonlinearity correction enabled: true
Boxcar width: 0
XAxis mode: Wavelengths
Number of Pixels in Spectrum: 3648
>>>>>Begin Spectral Data<<<<<
345.52	-55.48573
345.736	-55.48573
345.952	-55.48573
346.168	33.01848
346.384	-21.77492
346.6	14.04971
346.816	3.51233
347.032	20.37242
347.248	-9.13173
347.464	-72.33872
347.68	37.23403
347.896	37.23403
348.112	-51.27223
348.328	-2.80981
348.544	-15.45344
348.76	9.83468
348.975	28.80304
349.191	54.09713
349.407	-23.88203
349.623	37.23403
349.839	138.43433
350.055	45.6654
350.27	28.80304
350.486	30.91075
350.702	45.6654
350.918	-0.70246
351.133	-0.70246
351.349	-13.34623
351.565	33.01848
351.781	1.40492
351.996	-34.41722
352.212	41.44967
352.428	-9.13173
352.644	-7.02445
352.859	-80.7646
353.075	11.94218
353.291	-63.91243
353.506	-13.34623
353.722	24.58768
353.938	22.48004
354.153	-7.02445
354.369	30.91075
354.584	-59.69913
354.8	45.6654
355.016	-25.98912
355.231	30.91075
355.447	-70.23219
355.662	-42.84492
355.878	-15.45344
356.093	-15.45344
356.309	37.23403
356.524	-38.63112
356.74	-53.37899
356.955	30.91075
357.171	-17.56062
357.386	3.51233
357.602	3.51233
357.817	-28.09618
358.033	-4.91714
358.248	11.94218
358.464	1.40492
358.679	45.6654
358.895	56.20513
359.11	-28.09618
359.325	-13.34623
359.541	70.96171
359.756	-4.91714
359.972	-11.23899
360.187	-4.91714
360.402	-2.80981
360.618	-7.02445
360.833	5.61975
361.048	14.04971
361.264	-30.20322
361.479	49.88122
361.694	-0.70246
361.909	11.94218
362.125	87.82774
362.34	26.69535
362.555	-30.20322
362.77	22.48004
362.986	70.96171
363.201	28.80304
363.416	24.58768
363.631	24.58768
363.847	-32.31023
364.062	43.55752
364.277	20.37242
364.492	49.88122
364.707	7.72721
364.922	-4.91714
365.138	3.51233
365.353	9.83468
365.568	-21.77492
365.783	-13.34623
365.998	5.61975
366.213	37.23403
366.428	-11.23899
366.643	-13.34623
366.858	7.72721
367.073	3.51233
367.288	-0.70246
367.503	-2.80981
367.718	5.61975
367.933	-70.23219
368.148	16.15725
368.363	54.09713
368.578	35.12624
368.793	87.82774
369.008	-9.13173
369.223	20.37242
369.438	5.61975
369.653	30.91075
369.868	26.69535
370.083	-72.33872
370.298	-47.05863
370.513	-11.23899
370.728	39.34183
370.943	-47.05863
371.157	-51.27223
371.372	47.77329
371.587	-15.45344
371.802	3.51233
372.017	47.77329
372.232	11.94218
372.446	-7.02445
372.661	20.37242
372.876	39.34183
373.091	3.51233
373.306	104.6952
373.52	87.82774
373.735	-23.88203
373.95	3.51233
374.165	45.6654
374.379	-21.77492
374.594	45.6654
374.809	-21.77492
375.023	3.51233
375.238	-4.91714
375.453	66.74543
375.667	-42.84492
375.882	30.91075
376.097	73.06989
376.311	89.9361
376.526	-21.77492
376.741	-78.65817
376.955	45.6654
377.17	18.26482
377.384	20.37242
377.599	33.01848
377.813	35.12624
378.028	-21.77492
378.242	28.80304
378.457	51.98916
378.672	70.96171
378.886	-2.80981
379.101	49.88122
379.315	-30.20322
379.53	62.52924
379.744	-21.77492
379.958	3.51233
380.173	49.88122
380.387	30.91075
380.602	45.6654
380.816	30.91075
381.031	35.12624
381.245	28.80304
381.459	-19.66778
381.674	33.01848
381.888	28.80304
382.103	20.37242
382.317	-21.77492
382.531	16.15725
382.746	45.6654
382.96	-9.13173
383.174	41.44967
383.388	-7.02445
383.603	56.20513
383.817	33.01848
384.031	-9.13173
384.246	22.48004
384.46	-13.34623
384.674	41.44967
384.888	-32.31023
385.103	-9.13173
385.317	28.80304
385.531	-4.91714
385.745	30.91075
385.959	-17.56062
386.174	-25.98912
386.388	49.88122
386.602	-25.98912
386.816	16.15725
387.03	-23.88203
387.244	87.82774
387.458	-19.66778
387.672	3.51233
387.887	16.15725
388.101	-30.20322
388.315	3.51233
388.529	45.6654
388.743	30.91075
388.957	5.61975
389.171	37.23403
389.385	-53.37899
389.599	28.80304
389.813	-63.91243
390.027	-55.48573
390.241	123.67278
390.455	-0.70246
390.669	16.15725
390.883	5.61975
391.097	-7.02445
391.311	-11.23899
391.525	-19.66778
391.738	-55.48573
391.952	-30.20322
392.166	11.94218
392.38	79.39455
392.594	-0.70246
392.808	123.67278
393.022	37.23403
393.236	54.09713
393.449	-2.80981
393.663	60.42118
393.877	-17.56062
394.091	18.26482
394.305	-0.70246
394.518	41.44967
394.732	14.04971
394.946	64.63732
395.16	-4.91714
395.373	87.82774
395.587	96.26129
395.801	22.48004
396.015	70.96171
396.228	87.82774
396.442	-28.09618
396.656	73.06989
396.869	73.06989
397.083	39.34183
397.297	-19.66778
397.51	20.37242
397.724	3.51233
397.938	-13.34623
398.151	-17.56062
398.365	24.58768
398.578	62.52924
398.792	24.58768
399.005	-30.20322
399.219	-2.80981
399.433	11.94218
399.646	1.40492
399.86	3.51233
400.073	7.72721
400.287	14.04971
400.5	30.91075
400.714	47.77329
400.927	-36.52418
401.141	70.96171
401.354	49.88122
401.567	33.01848
401.781	-66.01904
401.994	22.48004
402.208	96.26129
402.421	20.37242
402.635	-7.02445
402.848	24.58768
403.061	28.80304
403.275	-44.95179
403.488	28.80304
403.701	60.42118
403.915	117.34672
404.128	-34.41722
404.341	7.72721
404.555	-63.91243
404.768	-0.70246
404.981	-30.20322
405.195	7.72721
405.408	-15.45344
405.621	47.77329
405.834	-40.73804
406.048	-4.91714
406.261	-17.56062
406.474	-53.37899
406.687	54.09713
406.9	28.80304
407.114	16.15725
407.327	14.04971
407.54	54.09713
407.753	22.48004
407.966	-44.95179
408.179	37.23403
408.392	66.74543
408.605	-2.80981
408.819	54.09713
409.032	33.01848
409.245	22.48004
409.458	100.4782
409.671	-36.52418
409.884	45.6654
410.097	64.63732
410.31	45.6654
410.523	1.40492
410.736	33.01848
410.949	28.80304
411.162	-4.91714
411.375	-2.80981
411.588	22.48004
411.801	62.52924
412.014	28.80304
412.227	35.12624
412.44	30.91075
412.653	45.6654
412.865	30.91075
413.078	3.51233
413.291	18.26482
413.504	16.15725
413.717	79.39455
413.93	-17.56062
414.143	28.80304
414.356	37.23403
414.568	41.44967
414.781	58.31314
414.994	-72.33872
415.207	24.58768
415.42	104.6952
415.632	24.58768
415.845	28.80304
416.058	62.52924
416.271	3.51233
416.483	1.40492
416.696	58.31314
416.909	11.94218
417.121	56.20513
417.334	73.06989
417.547	3.51233
417.759	-7.02445
417.972	22.48004
418.185	-2.80981
418.397	33.01848
418.61	5.61975
418.823	14.04971
419.035	11.94218
419.248	-32.31023
419.46	24.58768
419.673	47.77329
419.885	45.6654
420.098	28.80304
420.311	20.37242
420.523	127.89025
420.736	39.34183
420.948	33.01848
421.161	62.52924
421.373	-2.80981
421.586	11.94218
421.798	35.12624
422.01	11.94218
422.223	79.39455
422.435	-17.56062
422.648	51.98916
422.86	39.34183
423.073	-19.66778
423.285	11.94218
423.497	47.77329
423.71	39.34183
423.922	37.23403
424.134	7.72721
424.347	14.04971
424.559	54.09713
424.771	-34.41722
424.984	-19.66778
425.196	3.51233
425.408	43.55752
425.621	134.21663
425.833	3.51233
426.045	-17.56062
426.257	70.96171
426.47	45.6654
426.682	39.34183
426.894	-21.77492
427.106	-32.31023
427.318	28.80304
427.531	20.37242
427.743	83.6111
427.955	70.96171
428.167	35.12624
428.379	9.83468
428.591	-63.91243
428.804	-21.77492
429.016	87.82774
429.228	16.15725
429.44	39.34183
429.652	-32.31023
429.864	54.09713
430.076	87.82774
430.288	-13.34623
430.5	20.37242
430.712	-4.91714
430.924	-4.91714
431.136	33.01848
431.348	-2.80981
431.56	-25.98912
431.772	-28.09618
431.984	11.94218
432.196	41.44967
432.408	37.23403
432.62	22.48004
432.832	14.04971
433.044	-0.70246
433.256	11.94218
433.468	-15.45344
433.679	47.77329
433.891	7.72721
434.103	28.80304
434.315	26.69535
434.527	-47.05863
434.739	20.37242
434.95	-9.13173
435.162	-68.12563
435.374	62.52924
435.586	28.80304
435.798	62.52924
436.009	-36.52418
436.221	96.26129
436.433	-21.77492
436.645	3.51233
436.856	-44.95179
437.068	-0.70246
437.28	22.48004
437.491	18.26482
437.703	83.6111
437.915	-11.23899
438.126	14.04971
438.338	-4.91714
438.55	5.61975
438.761	3.51233
438.973	-11.23899
439.184	-80.7646
439.396	33.01848
439.608	33.01848
439.819	30.91075
440.031	5.61975
440.242	-34.41722
440.454	-34.41722
440.665	-63.91243
440.877	-2.80981
441.088	-30.20322
441.3	-97.61513
441.511	87.82774
441.723	37.23403
441.934	98.36974
442.146	54.09713
442.357	60.42118
442.569	-63.91243
442.78	14.04971
442.991	54.09713
443.203	-63.91243
443.414	-32.31023
443.626	24.58768
443.837	30.91075
444.048	-4.91714
444.26	-0.70246
444.471	-23.88203
444.682	-13.34623
444.894	45.6654
445.105	-11.23899
445.316	-25.98912
445.528	45.6654
445.739	-21.77492
445.95	60.42118
446.161	28.80304
446.373	-11.23899
446.584	58.31314
446.795	-0.70246
447.006	70.96171
447.217	20.37242
447.429	-97.61513
447.64	33.01848
447.851	16.15725
448.062	39.34183
448.273	62.52924
448.484	-2.80981
448.695	66.74543
448.907	-13.34623
449.118	24.58768
449.329	5.61975
449.54	11.94218
449.751	-72.33872
449.962	-47.05863
450.173	-28.09618
450.384	87.82774
450.595	16.15725
450.806	-11.23899
451.017	45.6654
451.228	64.63732
451.439	-4.91714
451.65	-2.80981
451.861	11.94218
452.072	-30.20322
452.283	-4.91714
452.494	51.98916
452.705	-44.95179
452.915	22.48004
453.126	24.58768
453.337	33.01848
453.548	54.09713
453.759	-28.09618
453.97	41.44967
454.181	85.71941
454.391	-30.20322
454.602	14.04971
454.813	33.01848
455.024	37.23403
455.235	37.23403
455.445	-13.34623
455.656	26.69535
455.867	16.15725
456.078	-11.23899
456.288	-0.70246
456.499	28.80304
456.71	28.80304
456.921	1.40492
457.131	58.31314
457.342	33.01848
457.553	66.74543
457.763	-25.98912
457.974	-4.91714
458.184	121.56407
458.395	43.55752
458.606	-36.52418
458.816	-15.45344
459.027	41.44967
459.237	7.72721
459.448	28.80304
459.659	49.88122
459.869	-9.13173
460.08	-28.09618
460.29	-4.91714
460.501	-13.34623
460.711	39.34183
460.922	70.96171
461.132	-2.80981
461.343	3.51233
461.553	64.63732
461.764	-2.80981
461.974	64.63732
462.184	-9.13173
462.395	14.04971
462.605	28.80304
462.816	16.15725
463.026	-32.31023
463.236	47.77329
463.447	89.9361
463.657	37.23403
463.867	56.20513
464.078	9.83468
464.288	-38.63112
464.498	16.15725
464.709	37.23403
464.919	47.77329
465.129	83.6111
465.339	24.58768
465.55	11.94218
465.76	20.37242
465.97	7.72721
466.18	-9.13173
466.391	64.63732
466.601	-47.05863
466.811	37.23403
467.021	-13.34623
467.231	3.51233
467.441	83.6111
467.651	81.50281
467.862	5.61975
468.072	30.91075
468.282	20.37242
468.492	20.37242
468.702	22.48004
468.912	60.42118
469.122	39.34183
469.332	24.58768
469.542	37.23403
469.752	-23.88203
469.962	-44.95179
470.172	24.58768
470.382	20.37242
470.592	41.44967
470.802	43.55752
471.012	47.77329
471.222	20.37242
471.432	-9.13173
471.642	33.01848
471.852	-0.70246
472.062	11.94218
472.272	117.34672
472.482	-13.34623
472.691	-13.34623
472.901	28.80304
473.111	-11.23899
473.321	58.31314
473.531	45.6654
473.741	-13.34623
473.95	-13.34623
474.16	37.23403
474.37	-0.70246
474.58	5.61975
474.79	37.23403
474.999	-19.66778
475.209	16.15725
475.419	20.37242
475.628	37.23403
475.838	7.72721
476.048	33.01848
476.258	28.80304
476.467	94.15287
476.677	96.26129
476.886	60.42118
477.096	9.83468
477.306	75.17808
477.515	-0.70246
477.725	49.88122
477.935	-4.91714
478.144	14.04971
478.354	28.80304
478.563	7.72721
478.773	5.61975
478.982	68.85356
479.192	3.51233
479.401	24.58768
479.611	-13.34623
479.82	54.09713
480.03	45.6654
480.239	64.63732
480.449	79.39455
480.658	96.26129
480.868	16.15725
481.077	-11.23899
481.287	22.48004
481.496	49.88122
481.705	39.34183
481.915	41.44967
482.124	37.23403
482.333	28.80304
482.543	73.06989
482.752	113.12946
482.961	56.20513
483.171	20.37242
483.38	62.52924
483.589	54.09713
483.799	39.34183
484.008	66.74543
484.217	30.91075
484.426	64.63732
484.636	-11.23899
484.845	66.74543
485.054	92.04447
485.263	28.80304
485.472	14.04971
485.682	-0.70246
485.891	51.98916
486.1	49.88122
486.309	33.01848
486.518	7.72721
486.727	66.74543
486.936	-17.56062
487.146	104.6952
487.355	56.20513
487.564	-17.56062
487.773	58.31314
487.982	28.80304
488.191	16.15725
488.4	58.31314
488.609	96.26129
488.818	70.96171
489.027	22.48004
489.236	153.19692
489.445	75.17808
489.654	3.51233
489.863	79.39455
490.072	70.96171
490.281	66.74543
490.49	87.82774
490.698	37.23403
490.907	39.34183
491.116	94.15287
491.325	62.52924
491.534	41.44967
491.743	113.12946
491.952	121.56407
492.16	136.32547
492.369	89.9361
492.578	138.43433
492.787	104.6952
492.996	119.45538
493.204	49.88122
493.413	115.23808
493.622	172.17891
493.831	123.67278
494.039	83.6111
494.248	96.26129
494.457	62.52924
494.665	49.88122
494.874	104.6952
495.083	79.39455
495.291	64.63732
495.5	5.61975
495.709	113.12946
495.917	85.71941
496.126	132.10782
496.335	108.91229
496.543	56.20513
496.752	113.12946
496.96	129.99903
497.169	121.56407
497.377	100.4782
497.586	58.31314
497.794	41.44967
498.003	47.77329
498.211	94.15287
498.42	121.56407
498.628	45.6654
498.837	87.82774
499.045	129.99903
499.254	121.56407
499.462	155.30595
499.671	144.76102
499.879	123.67278
500.087	138.43433
500.296	81.50281
500.504	123.67278
500.713	146.86997
500.921	89.9361
501.129	172.17891
501.338	193.27198
501.546	111.02086
501.754	146.86997
501.962	132.10782
502.171	100.4782
502.379	138.43433
502.587	89.9361
502.795	146.86997
503.004	151.08791
503.212	106.80373
503.42	117.34672
503.628	79.39455
503.837	218.58633
504.045	96.26129
504.253	163.74226
504.461	140.5432
504.669	45.6654
504.877	108.91229
505.085	89.9361
505.294	98.36974
505.502	129.99903
505.71	216.47669
505.918	165.85139
506.126	197.49084
506.334	142.6521
506.542	155.30595
506.75	163.74226
506.958	227.02509
507.166	180.61589
507.374	224.91537
507.582	117.34672
507.79	163.74226
507.998	189.0532
508.206	214.36707
508.414	231.24458
508.622	193.27198
508.83	205.9288
509.037	121.56407
509.245	184.83451
509.453	172.17891
509.661	165.85139
509.869	180.61589
510.077	134.21663
510.285	265.00332
510.492	191.16258
510.7	199.6003
510.908	273.44377
511.116	233.35436
511.324	172.17891
511.531	222.80567
511.739	214.36707
511.947	231.24458
512.155	140.5432
512.362	222.80567
512.57	195.3814
512.778	243.90353
512.985	256.56318
513.193	233.35436
513.401	267.11341
513.608	208.03833
513.816	258.67319
514.024	218.58633
514.231	281.88452
514.439	290.32557
514.646	214.36707
514.854	283.99475
515.061	235.46415
515.269	231.24458
515.477	216.47669
515.684	229.13482
515.892	189.0532
516.099	315.65046
516.307	237.57397
516.514	235.46415
516.722	203.81928
516.929	281.88452
517.136	277.66411
517.344	290.32557
517.551	229.13482
517.759	347.3102
517.966	224.91537
518.173	279.77431
518.381	241.79366
518.588	326.20327
518.796	281.88452
519.003	345.19943
519.21	218.58633
519.418	328.31388
519.625	368.41887
519.832	254.45319
520.039	309.31899
520.247	243.90353
520.454	277.66411
520.661	332.53516
520.868	307.20854
521.076	400.08505
521.283	258.67319
521.49	317.76099
521.697	328.31388
521.904	400.08505
522.112	334.64583
522.319	334.64583
522.526	330.42451
522.733	319.87153
522.94	368.41887
523.147	357.86432
523.354	423.30926
523.561	397.97385
523.768	395.86267
523.975	305.0981
524.183	372.64081
524.39	421.19789
524.597	300.87729
524.804	478.21043
525.011	353.64262
525.218	448.64696
525.425	338.86722
525.632	438.08931
525.838	433.86636
526.045	444.42385
526.252	400.08505
526.459	459.205
526.666	438.08931
526.873	446.5354
527.08	459.205
527.287	383.19595
527.494	467.65171
527.701	459.205
527.907	501.44093
528.114	543.68269
528.321	364.197
528.528	503.55289
528.735	383.19595
528.941	459.205
529.148	442.31232
529.355	433.86636
529.562	497.21707
529.768	602.83037
529.975	482.43403
530.182	514.11286
530.388	482.43403
530.595	533.12172
530.802	501.44093
531.008	585.92998
531.215	490.88139
531.422	583.81748
531.628	539.45826
531.835	531.00957
532.042	560.58096
532.248	566.91803
532.455	526.78531
532.661	689.45734
532.868	444.42385
533.074	636.6336
533.281	471.87515
533.487	714.81528
533.694	535.23389
533.9	607.0556
534.107	495.10517
534.313	695.79667
534.52	647.19775
534.726	613.39353
534.933	638.7464
535.139	668.32696
535.345	670.43995
535.552	714.81528
535.758	649.31062
535.965	653.53639
536.171	611.28088
536.377	763.42234
536.584	664.10102
536.79	623.95701
536.996	757.08198
537.203	664.10102
537.409	750.74171
537.615	788.78469
537.821	661.98807
538.028	799.35276
538.234	729.60814
538.44	695.79667
538.646	630.29525
538.853	888.13345
539.059	719.04176
539.265	852.19655
539.471	773.98982
539.677	723.26828
539.883	799.35276
540.09	812.03474
540.296	788.78469
540.502	797.23912
540.708	733.83477
540.914	890.24746
541.12	801.4664
541.326	964.24265
541.532	782.44397
541.738	981.15708
541.944	877.56352
542.15	938.87185
542.356	932.52931
542.562	1012.87276
542.768	864.87988
542.974	945.21445
543.18	847.96884
543.386	993.84318
543.592	1008.64392
543.798	1067.84985
544.004	837.39972
544.21	1036.13182
544.415	983.27141
544.621	1021.33052
544.827	940.98604
545.033	1067.84985
545.239	968.47122
545.445	1093.22514
545.651	1025.55943
545.856	1211.65179
546.062	1069.96443
546.268	1053.04795
546.474	892.36148
546.679	976.92843
546.885	1025.55943
547.091	1247.60501
547.297	915.6162
547.502	1190.50327
547.708	1034.01733
547.914	1243.37517
548.119	1152.43685
548.325	1262.40951
548.531	1146.09257
548.736	1165.12552
548.942	1122.83055
549.147	1262.40951
549.353	1253.94978
549.559	1222.22617
549.764	1025.55943
549.97	1179.92914
550.175	1122.83055
550.381	1431.61033
550.586	1220.11129
550.792	1338.54874
550.997	1215.88153
551.203	1296.24884
551.408	1034.01733
551.614	1317.3987
551.819	1046.70436
552.025	1414.68993
552.23	1270.86929
552.435	1334.31872
552.641	1334.31872
552.846	1306.82375
553.052	1298.36382
553.257	1382.96428
553.462	1296.24884
553.668	1476.02642
553.873	1380.84924
554.078	1550.05281
554.283	1355.46888
554.489	1427.38022
554.694	1315.28371
554.899	1516.21229
555.105	1456.99095
555.31	1448.53074
555.515	1478.14147
555.72	1592.35299
555.925	1399.88461
556.131	1619.84774
556.336	1456.99095
556.541	1636.76741
556.746	1499.29195
556.951	1486.60167
557.156	1482.37157
557.361	1518.32733
557.567	1482.37157
557.772	1687.52549
557.977	1526.78748
558.182	1526.78748
558.387	1552.16783
558.592	1600.81295
558.797	1490.83176
559.002	1704.44448
559.207	1628.3076
559.412	1653.68694
559.617	1660.03172
559.822	1643.11225
560.027	1495.06186
560.232	1746.74107
560.437	1630.42255
560.642	1816.52717
560.847	1685.4106
561.051	1799.60974
561.256	1435.84043
561.461	1691.75525
561.666	1592.35299
561.871	1856.70491
562.076	1767.88883
562.281	1837.67356
562.485	1630.42255
562.69	1926.48299
562.895	1850.36117
563.1	1765.77408
563.305	1729.8226
563.509	2011.05412
563.714	1778.46257
563.919	1837.67356
564.123	1860.93404
564.328	1947.62668
564.533	1905.33873
564.737	1867.27771
564.942	1824.98578
565.147	1953.96967
565.351	1685.4106
565.556	2027.96713
565.761	1918.02535
565.965	1998.36909
566.17	1780.57731
566.374	2192.84455
566.579	2011.05412
566.784	1831.32969
566.988	1778.46257
567.193	2068.13377
567.397	1871.50679
567.602	2197.07155
567.806	1989.91227
568.011	2137.89062
568.215	1896.88087
568.42	2082.93136
568.624	1915.91093
568.828	2101.9563
569.033	2002.59746
569.237	2209.75232
569.442	2093.50084
569.646	2093.50084
569.85	2089.27307
570.055	2108.29781
570.259	2091.38696
570.463	2017.39655
570.668	1934.94053
570.872	2387.24864
571.076	2106.18398
571.281	2224.54617
571.485	2061.79183
571.689	2167.48189
571.893	2205.52543
572.098	2239.33959
572.302	2087.15917
572.506	2395.69913
572.71	2144.23174
572.914	2416.82462
573.119	2218.206
573.323	2446.39853
573.527	2042.76566
573.731	2302.73493
573.935	2285.83032
574.139	2530.88355
574.343	2152.68645
574.547	2302.73493
574.751	2281.60407
574.955	2539.33105
575.159	2309.074
575.364	2467.52145
575.568	2205.52543
575.772	2387.24864
575.976	2467.52145
576.18	2499.20377
576.383	2357.67065
576.587	2634.35239
576.791	2429.49941
576.995	2395.69913
577.199	2385.136
577.403	2583.67737
577.607	2440.06144
577.811	2674.46505
578.015	2387.24864
578.219	2541.4429
578.422	2287.94343
578.626	2790.55429
578.83	2463.29696
579.034	2598.45831
579.238	2513.98799
579.442	2623.79568
579.645	2585.78897
579.849	2701.90791
580.053	2484.419
580.257	2653.35369
580.46	2625.90704
580.664	2836.97858
580.868	2613.23865
581.071	2919.25942
581.275	2513.98799
581.479	2634.35239
