Data from mixed_try1_USB4F045381__2__00024.txt Node

Date: Thu Apr 03 19:31:57 EDT 2025
User: mmckonesweet
Spectrometer: USB4F04538
Trigger mode: 4
Integration Time (sec): 2.700000E-3
Scans to average: 1
Electric dark correction enabled: true
Nonlinearity correction enabled: true
Boxcar width: 0
XAxis mode: Wavelengths
Number of Pixels in Spectrum: 3648
>>>>>Begin Spectral Data<<<<<
345.52	-21.95051
345.736	-21.95051
345.952	-21.95051
346.168	-19.84338
346.384	-17.73622
346.6	41.27401
346.816	58.13747
347.032	-15.62904
347.248	24.41204
347.464	-21.95051
347.68	39.16618
347.896	-104.10916
348.112	-53.55456
348.328	-17.73622
348.544	64.46165
348.76	-76.72725
348.975	62.35357
349.191	-38.8067
349.407	53.92147
349.623	-36.69976
349.839	70.78603
350.055	-28.27177
350.27	11.76656
350.486	-55.66129
350.702	41.27401
350.918	-2.98542
351.133	-28.27177
351.349	-55.66129
351.565	15.98162
351.781	11.76656
351.996	-21.95051
352.212	-70.40773
352.428	28.62739
352.644	45.48974
352.859	20.19678
353.075	47.59764
353.291	-80.94014
353.506	-9.30734
353.722	-30.3788
353.938	-72.51427
354.153	-30.3788
354.369	32.84284
354.584	39.16618
354.8	-55.66129
355.016	28.62739
355.231	-5.09275
355.447	18.08919
355.662	5.44413
355.878	-11.4146
356.093	60.24551
356.309	-47.2342
356.524	32.84284
356.74	-47.2342
356.955	-11.4146
357.171	53.92147
357.386	7.55158
357.602	-5.09275
357.817	-13.52183
358.033	-30.3788
358.248	1.22931
358.464	-9.30734
358.679	22.3044
358.895	-17.73622
359.11	-19.84338
359.325	-64.08798
359.541	-11.4146
359.756	24.41204
359.972	-26.16471
360.187	-9.30734
360.402	-43.0205
360.618	-61.98135
360.833	-5.09275
361.048	-0.87807
361.264	-19.84338
361.479	-9.30734
361.694	-34.5928
361.909	7.55158
362.125	-97.79065
362.34	28.62739
362.555	-38.8067
362.77	11.76656
362.986	5.44413
363.201	-2.98542
363.416	-80.94014
363.631	20.19678
363.847	24.41204
364.062	-26.16471
364.277	-26.16471
364.492	89.7604
364.707	-45.12736
364.922	41.27401
365.138	-0.87807
365.353	26.51971
365.568	-32.48582
365.783	26.51971
365.998	-36.69976
366.213	15.98162
366.428	-45.12736
366.643	3.33671
366.858	-0.87807
367.073	32.84284
367.288	15.98162
367.503	-26.16471
367.718	-19.84338
367.933	-2.98542
368.148	28.62739
368.363	66.56975
368.578	47.59764
368.793	41.27401
369.008	-0.87807
369.223	28.62739
369.438	28.62739
369.653	20.19678
369.868	-21.95051
370.083	37.05838
370.298	96.08559
370.513	3.33671
370.728	28.62739
370.943	56.02946
371.157	45.48974
371.372	-51.44779
371.587	32.84284
371.802	79.21886
372.017	-7.20006
372.232	3.33671
372.446	-11.4146
372.661	98.19403
372.876	-36.69976
373.091	13.87408
373.306	-5.09275
373.52	32.84284
373.735	-36.69976
373.95	20.19678
374.165	11.76656
374.379	66.56975
374.594	11.76656
374.809	37.05838
375.023	43.38186
375.238	20.19678
375.453	-28.27177
375.667	-53.55456
375.882	20.19678
376.097	15.98162
376.311	30.7351
376.526	39.16618
376.741	39.16618
376.955	34.9506
377.17	87.65205
377.384	-13.52183
377.599	-11.4146
377.813	28.62739
378.028	58.13747
378.242	64.46165
378.457	79.21886
378.672	-64.08798
378.886	3.33671
379.101	-64.08798
379.315	-17.73622
379.53	3.33671
379.744	11.76656
379.958	53.92147
380.173	79.21886
380.387	-32.48582
380.602	26.51971
380.816	15.98162
381.031	-53.55456
381.245	-13.52183
381.459	-5.09275
381.674	3.33671
381.888	11.76656
382.103	11.76656
382.317	-68.30117
382.531	45.48974
382.746	62.35357
382.96	-0.87807
383.174	-43.0205
383.388	72.8942
383.603	58.13747
383.817	-49.34101
384.031	-53.55456
384.246	-38.8067
384.46	-21.95051
384.674	26.51971
384.888	3.33671
385.103	-34.5928
385.317	-53.55456
385.531	41.27401
385.745	7.55158
385.959	11.76656
386.174	-9.30734
386.388	22.3044
386.602	-21.95051
386.816	-43.0205
387.03	58.13747
387.244	-5.09275
387.458	3.33671
387.672	106.62802
387.887	-28.27177
388.101	79.21886
388.315	-21.95051
388.529	41.27401
388.743	-19.84338
388.957	70.78603
389.171	-21.95051
389.385	-0.87807
389.599	3.33671
389.813	-34.5928
390.027	47.59764
390.241	-53.55456
390.455	-9.30734
390.669	49.70556
390.883	-11.4146
391.097	11.76656
391.311	-87.25927
391.525	64.46165
391.738	53.92147
391.952	123.49705
392.166	-80.94014
392.38	-34.5928
392.594	39.16618
392.808	53.92147
393.022	-40.91361
393.236	-5.09275
393.449	79.21886
393.663	7.55158
393.877	34.9506
394.091	-26.16471
394.305	45.48974
394.518	-5.09275
394.732	-53.55456
394.946	37.05838
395.16	62.35357
395.373	45.48974
395.587	-43.0205
395.801	30.7351
396.015	-2.98542
396.228	26.51971
396.442	-30.3788
396.656	-17.73622
396.869	79.21886
397.083	37.05838
397.297	7.55158
397.51	-61.98135
397.724	9.65906
397.938	53.92147
398.151	3.33671
398.365	20.19678
398.578	-57.768
398.792	28.62739
399.005	26.51971
399.219	-7.20006
399.433	-5.09275
399.646	60.24551
399.86	-0.87807
400.073	-19.84338
400.287	53.92147
400.5	-21.95051
400.714	41.27401
400.927	91.86877
401.141	83.43541
401.354	-5.09275
401.567	34.9506
401.781	7.55158
401.994	45.48974
402.208	47.59764
402.421	-11.4146
402.635	77.11062
402.848	72.8942
403.061	1.22931
403.275	11.76656
403.488	60.24551
403.701	22.3044
403.915	24.41204
404.128	-2.98542
404.341	-21.95051
404.555	72.8942
404.768	98.19403
404.981	49.70556
405.195	5.44413
405.408	64.46165
405.621	-61.98135
405.834	70.78603
406.048	64.46165
406.261	45.48974
406.474	30.7351
406.687	-30.3788
406.9	39.16618
407.114	89.7604
407.327	13.87408
407.54	117.171
407.753	56.02946
407.966	11.76656
408.179	45.48974
408.392	1.22931
408.605	64.46165
408.819	20.19678
409.032	104.51949
409.245	96.08559
409.458	28.62739
409.671	-30.3788
409.884	7.55158
410.097	39.16618
410.31	37.05838
410.523	11.76656
410.736	85.54372
410.949	32.84284
411.162	64.46165
411.375	123.49705
411.588	5.44413
411.801	91.86877
412.014	70.78603
412.227	20.19678
412.44	-36.69976
412.653	-15.62904
412.865	62.35357
413.078	24.41204
413.291	20.19678
413.504	41.27401
413.717	62.35357
413.93	11.76656
414.143	-30.3788
414.356	112.95374
414.568	-11.4146
414.781	32.84284
414.994	30.7351
415.207	70.78603
415.42	64.46165
415.632	30.7351
415.845	-9.30734
416.058	-26.16471
416.271	85.54372
416.483	22.3044
416.696	43.38186
416.909	62.35357
417.121	47.59764
417.334	62.35357
417.547	66.56975
417.759	110.84515
417.972	45.48974
418.185	58.13747
418.397	87.65205
418.61	87.65205
418.823	15.98162
419.035	131.93208
419.248	28.62739
419.46	39.16618
419.673	66.56975
419.885	131.93208
420.098	72.8942
420.311	26.51971
420.523	87.65205
420.736	70.78603
420.948	47.59764
421.161	53.92147
421.373	-9.30734
421.586	45.48974
421.798	89.7604
422.01	37.05838
422.223	121.38835
422.435	115.06236
422.648	-2.98542
422.86	98.19403
423.073	163.5665
423.285	96.08559
423.497	49.70556
423.71	72.8942
423.922	64.46165
424.134	45.48974
424.347	172.00315
424.559	62.35357
424.771	138.25859
424.984	100.3025
425.196	102.41098
425.408	106.62802
425.621	134.0409
425.833	110.84515
426.045	121.38835
426.257	197.31505
426.47	123.49705
426.682	146.69422
426.894	66.56975
427.106	75.0024
427.318	43.38186
427.531	56.02946
427.743	138.25859
427.955	115.06236
428.167	66.56975
428.379	174.11236
428.591	172.00315
428.804	115.06236
429.016	129.82329
429.228	155.13019
429.44	142.47636
429.652	222.62986
429.864	134.0409
430.076	87.65205
430.288	112.95374
430.5	203.64348
430.712	148.80318
430.924	174.11236
431.136	125.60578
431.348	188.87742
431.56	117.171
431.772	134.0409
431.984	112.95374
432.196	174.11236
432.408	222.62986
432.62	165.67563
432.832	150.91217
433.044	125.60578
433.256	163.5665
433.468	174.11236
433.679	197.31505
433.891	184.65873
434.103	247.94751
434.315	172.00315
434.527	258.49735
434.739	300.70142
434.95	180.44012
435.162	233.17854
435.374	239.50798
435.586	266.93757
435.798	338.69132
436.009	283.8189
436.221	250.05744
436.433	271.15779
436.645	302.81182
436.856	323.91679
437.068	273.26793
437.28	345.02353
437.491	252.16739
437.703	233.17854
437.915	285.92915
438.126	326.02738
438.338	277.48826
438.55	374.57589
438.761	385.13111
438.973	357.68842
439.184	239.50798
439.396	351.3559
439.608	311.25359
439.819	399.90911
440.031	334.46994
440.242	309.14312
440.454	429.46752
440.665	404.13155
440.877	486.48169
441.088	416.79924
441.3	391.46444
441.511	425.2447
441.723	378.79793
441.934	391.46444
442.146	412.57661
442.357	478.03445
442.569	391.46444
442.78	444.24789
442.991	326.02738
443.203	416.79924
443.414	412.57661
443.626	446.35944
443.837	414.68792
444.048	328.13799
444.26	475.92268
444.471	421.02194
444.682	484.36986
444.894	450.58257
445.105	490.7054
445.316	484.36986
445.528	442.13636
445.739	545.61891
445.95	501.26494
446.161	592.09148
446.373	573.07919
446.584	539.28225
446.795	469.58744
447.006	619.55552
447.217	560.40493
447.429	448.471
447.64	549.84342
447.851	606.87955
448.062	535.05787
448.273	619.55552
448.484	564.62963
448.695	545.61891
448.907	509.71283
449.118	653.36032
449.329	556.18028
449.54	634.34474
449.751	594.20402
449.962	630.11918
450.173	636.45753
450.384	680.82896
450.595	744.22541
450.806	807.63124
451.017	731.54534
451.228	644.90883
451.439	720.97891
451.65	807.63124
451.861	674.48987
452.072	881.6153
452.283	737.88533
452.494	961.95219
452.705	841.45119
452.915	945.03827
453.126	894.29933
453.337	936.58148
453.548	816.086
453.759	961.95219
453.97	887.95728
454.181	957.72367
454.391	932.35313
454.602	1194.55671
454.813	985.20956
455.024	1150.14586
455.235	1069.78821
455.445	1118.42492
455.656	1076.13198
455.867	1143.80159
456.078	932.35313
456.288	991.55261
456.499	1128.99846
456.71	1171.29367
456.921	1052.87173
457.131	1173.40847
457.342	1107.8515
457.553	1198.7864
457.763	1137.45737
457.974	1264.34821
458.184	1190.32703
458.395	1454.69964
458.606	1312.99246
458.816	1456.8147
459.027	1484.31036
459.237	1532.95633
459.448	1526.61123
459.659	1535.07136
459.869	1617.55653
460.08	1532.95633
460.29	1653.51069
460.501	1755.02399
460.711	1695.80877
460.922	1687.34924
461.132	1797.31882
461.343	1695.80877
461.553	1829.03884
461.764	1917.84915
461.974	1774.05686
462.184	1839.61195
462.395	1854.41412
462.605	2175.76011
462.816	1892.4757
463.026	2027.79095
463.236	2065.84363
463.447	2120.80448
463.657	2127.14579
463.867	2247.61667
464.078	2260.29618
464.288	2406.08596
464.498	2300.4458
464.709	2393.41047
464.919	2264.52261
465.129	2634.17645
465.339	2575.05489
465.55	2566.60818
465.76	2490.57939
465.97	2577.16653
466.18	2674.28912
466.391	2944.3964
466.601	2651.06655
466.811	2946.5057
467.021	2988.6886
467.231	3188.97301
467.441	2904.31687
467.651	3115.20064
467.862	2995.01552
468.072	3370.15576
468.282	3353.30689
468.492	3279.58007
468.702	3576.46176
468.912	3549.10469
469.122	3357.51921
469.332	3626.95884
469.542	3517.53496
469.752	3896.08993
469.962	3687.96165
470.172	4017.93289
470.382	3885.58304
470.592	4059.93177
470.802	3805.71442
471.012	4215.25512
471.222	4420.7742
471.432	4278.19108
471.642	4225.74578
471.852	4422.87026
472.062	4385.13782
472.272	4600.95497
472.482	4693.07686
472.691	4852.09359
472.901	4695.17003
473.111	4893.91825
473.321	4868.82455
473.531	5067.3924
473.741	5153.02568
473.95	5249.0555
474.16	5167.6421
474.37	5580.60289
474.58	5407.60506
474.79	5661.83498
474.999	5728.46015
475.209	5413.86082
475.419	5678.49354
475.628	6106.93138
475.838	5830.43311
476.048	6050.83386
476.258	6050.83386
476.467	6335.2999
476.677	6627.61403
476.886	6538.51745
477.096	6766.35408
477.306	6675.25283
477.515	6683.5366
477.725	6861.54897
477.935	6793.26188
478.144	6948.42405
478.354	6909.12837
478.563	7264.56251
478.773	7204.68086
478.982	7237.72131
479.192	7448.222
479.401	7442.03404
479.611	7454.40976
479.82	7619.34533
480.03	7850.02687
480.239	7983.7848
480.449	7987.89906
480.658	8216.11343
480.868	8037.26375
481.077	8191.4535
481.287	8324.99414
481.496	8532.33276
481.705	8764.07711
481.915	8755.8778
482.124	8790.72284
482.333	8903.42097
482.543	8987.39713
482.752	9153.21477
482.961	9167.53938
483.171	9396.62113
483.38	9069.2966
483.589	9449.77122
483.799	9562.16826
484.008	9664.30591
484.217	9586.68486
484.426	9739.86283
484.636	9752.11334
484.845	10074.51756
485.054	9982.73065
485.263	10435.27418
485.472	10233.54743
485.682	10471.93794
485.891	10482.12158
486.1	10612.44418
486.309	10809.86835
486.518	10854.6294
486.727	10653.15952
486.936	10929.89675
487.146	10708.11748
487.355	10964.47382
487.564	10978.71049
487.773	11125.11345
487.982	11251.13813
488.191	11584.30699
488.4	11537.59772
488.609	11825.90042
488.818	11846.19678
489.027	11909.11015
489.236	11990.27704
489.445	11972.01561
489.654	11998.39302
489.863	12395.92803
490.072	12166.77152
490.281	12468.91512
490.49	12657.42656
490.698	12612.83731
490.907	12381.73509
491.116	12671.61343
491.325	12645.26614
491.534	13012.01552
491.743	13131.52667
491.952	13117.34825
492.16	13285.44942
492.369	13078.86281
492.578	13356.32648
492.787	13408.97477
492.996	13336.07641
493.204	13710.64147
493.413	13595.248
493.622	13777.44345
493.831	13927.23022
494.039	13805.78269
494.248	13619.54226
494.457	14164.02653
494.665	13884.72472
494.874	14192.35907
495.083	14329.96888
495.291	14591.00222
495.5	14325.92165
495.709	14690.14894
495.917	14378.53508
496.126	14528.27536
496.335	14564.69755
496.543	14694.19569
496.752	14888.43614
496.96	14819.64339
497.169	14872.24967
497.377	15187.88179
497.586	15212.16104
497.794	15220.25413
498.003	15143.36983
498.211	15513.63151
498.42	15270.83597
498.628	15535.88813
498.837	15600.63512
499.045	15548.02813
499.254	15576.35491
499.462	15675.49983
499.671	15788.81096
499.879	16221.85726
500.087	15839.39734
500.296	16213.7623
500.504	15964.85481
500.713	16296.73697
500.921	16438.40824
501.129	16146.97992
501.338	15786.78752
501.546	16588.1858
501.754	16460.67175
501.962	16596.28222
502.171	16648.90982
502.379	17264.37336
502.587	16772.3884
502.795	17053.79227
503.004	16855.38726
503.212	17140.85572
503.42	16916.12081
503.628	17236.0241
503.837	16936.36584
504.045	17286.64819
504.253	17153.00452
504.461	17383.8517
504.669	17718.04384
504.877	17472.96112
505.085	17474.9864
505.294	17519.54345
505.502	17483.08757
505.71	17938.86272
505.918	17699.8129
506.126	18032.06474
506.334	17610.6877
506.542	18236.73067
506.75	17784.89298
506.958	17977.3583
507.166	17932.78459
507.374	18050.3008
507.582	18362.3858
507.79	18475.89321
507.998	18305.63655
508.206	18611.71251
508.414	18421.16494
508.622	18706.99915
508.83	18512.38028
509.037	18636.04019
509.245	18394.81528
509.453	18775.93532
509.661	18994.93958
509.869	18826.62661
510.077	19031.44485
510.285	18775.93532
510.492	19009.13592
510.7	18814.46047
510.908	18952.35176
511.116	19039.55731
511.324	19289.04731
511.531	19274.84703
511.739	19289.04731
511.947	19007.10786
512.155	19234.27591
512.362	19358.02299
512.57	19252.53271
512.778	19220.0764
512.985	19461.49547
513.193	19244.41853
513.401	19599.4756
513.608	19918.12123
513.816	19680.64939
514.024	19623.82703
514.231	19605.5634
514.439	19633.97364
514.646	19709.0618
514.854	20072.40725
515.061	19532.51225
515.269	19916.09131
515.477	19889.70277
515.684	20236.87042
515.892	19981.05075
516.099	20003.38155
516.307	20218.59537
516.514	20742.61471
516.722	20681.66794
516.929	20639.00744
517.136	20527.28625
517.344	20295.759
517.551	20537.4422
517.759	20722.29871
517.966	20825.91466
518.173	20651.19596
518.381	20720.26713
518.588	20758.86781
518.796	20817.78753
519.003	20925.47738
519.21	20756.83616
519.418	21183.57359
519.625	21169.34611
519.832	21382.77924
520.039	21144.95659
520.247	21307.5644
520.454	21620.65671
520.661	21537.29176
520.868	21453.93347
521.076	21769.1033
521.283	21427.50418
521.49	21891.12969
521.697	21679.62615
521.904	21905.367
522.112	21791.47376
522.319	22167.77369
522.526	21724.36378
522.733	22275.60225
522.94	21984.69261
523.147	22080.29782
523.354	21732.4981
523.561	22678.52391
523.768	22352.91967
523.975	22466.87072
524.183	22407.85894
524.39	22753.83279
524.597	22867.8228
524.804	22731.44316
525.011	22523.85049
525.218	22513.67532
525.425	22625.60702
525.632	22647.99465
525.838	22996.07433
526.045	22827.11084
526.252	22884.10796
526.459	22831.18198
526.666	23218.00108
526.873	23327.96076
527.08	23462.3685
527.287	23452.18561
527.494	23350.36109
527.701	23621.23144
527.907	23411.45486
528.114	23395.16291
528.321	23405.34536
528.528	23584.56911
528.735	24089.77866
528.941	23886.04367
529.148	23549.94448
529.355	23676.22678
529.562	23879.93206
529.768	24303.73025
529.975	23721.0394
530.182	24499.3688
530.388	24044.95455
530.595	23922.71387
530.802	23851.41155
531.008	24434.15329
531.215	24177.39331
531.422	24515.67309
531.628	24646.11321
531.835	24368.94043
532.042	24886.63854
532.248	25078.26692
532.455	24758.2183
532.661	25057.87997
532.868	25353.51239
533.074	25172.0498
533.281	25504.40412
533.487	25263.79842
533.694	25190.39917
533.9	25549.26598
534.107	24984.4888
534.313	25373.9025
534.52	25316.81072
534.726	25643.07119
534.933	25541.10921
535.139	25583.93263
535.345	25235.25393
535.552	25484.01268
535.758	25316.81072
535.965	25708.32944
536.171	25594.12882
536.377	25796.02331
536.584	26075.443
536.79	25922.47178
536.996	26295.73886
537.203	25877.60215
537.409	25793.98388
537.615	25687.93602
537.821	25959.18395
538.028	26412.01401
538.234	26426.29378
538.44	26701.70443
538.646	26028.53076
538.853	26291.65913
539.059	26640.49963
539.265	26514.01409
539.471	26764.95081
539.677	26726.18673
539.883	27113.85092
540.09	26981.22321
540.296	26811.87646
540.502	27238.32214
540.708	27003.66749
540.914	27071.00133
541.12	26913.8914
541.326	27430.13981
541.532	27291.37695
541.738	27724.00965
541.944	27593.3977
542.15	27777.07215
542.356	27448.50593
542.562	27707.68289
542.768	27301.5799
542.974	27554.62324
543.18	28095.46359
543.386	28213.84689
543.592	28393.46995
543.798	28509.82115
544.004	28166.90134
544.21	28244.46386
544.415	27809.72639
544.621	28111.7921
544.827	27942.38731
545.033	28391.42873
545.239	28252.62843
545.445	29379.50104
545.651	28507.77987
545.856	28816.02491
546.062	28448.58324
546.268	28499.61477
546.474	28089.34042
546.679	28403.67606
546.885	28281.20455
547.091	28371.01661
547.297	27752.58166
547.502	28448.58324
547.708	28517.98628
547.914	28779.27921
548.119	29185.54198
548.325	29124.29371
548.531	28791.52774
548.736	29005.88303
548.942	28846.64658
549.147	28779.27921
549.353	29181.45873
549.559	29536.71692
549.764	29310.08303
549.97	29626.55739
550.175	29399.91833
550.381	29551.00958
550.586	29146.7513
550.792	29700.06478
550.997	29573.46959
551.203	29446.87851
551.408	30000.2347
551.614	29744.98665
551.819	29798.07682
552.025	30114.59153
552.23	29789.90905
552.435	30024.73943
552.641	30947.87856
552.846	30188.10856
553.052	30077.83359
553.257	30143.18131
553.462	30608.81937
553.668	30298.38696
553.873	30049.24433
554.078	30623.11631
554.283	30766.08918
554.489	31137.85026
554.694	30974.43299
554.899	30659.88014
555.105	30964.21972
555.31	31023.45719
555.515	30700.72935
555.72	31201.177
555.925	30590.43769
556.131	31166.44925
556.336	30770.17422
556.541	31143.97859
556.746	30939.70801
556.951	31266.54807
557.156	31405.46693
557.361	30992.81697
557.567	31705.80286
557.772	31756.88413
557.977	31448.36984
558.182	31558.69497
558.387	31756.88413
558.592	31538.26402
558.797	31425.8968
559.002	31491.27348
559.207	31754.84085
559.412	31940.78615
559.617	32245.28068
559.822	32284.11211
560.027	31854.96333
560.232	31642.46364
560.437	31724.19199
560.642	32100.18042
560.847	31926.48212
561.051	31732.36498
561.256	31299.2342
561.461	31462.67097
561.666	32081.78816
561.871	32063.39606
562.076	32171.70742
562.281	32147.1836
562.485	31546.43638
562.69	32233.01829
562.895	31885.61396
563.1	32439.44562
563.305	32116.52923
563.509	32181.92577
563.714	32594.79204
563.919	32756.28494
564.123	32374.0405
564.328	32461.92915
564.533	32314.76905
564.737	32388.34767
564.942	32901.43725
565.147	32887.12589
565.351	32737.88625
565.556	32347.47031
565.761	32627.49826
565.965	32694.95675
566.17	32427.18198
566.374	32694.95675
566.579	33044.55788
566.784	32999.57572
566.988	33218.36503
567.193	33165.19836
567.397	32889.17036
567.602	33406.50884
567.806	33418.77995
568.011	33459.68445
568.215	33357.42545
568.42	32911.65972
568.624	32889.17036
568.828	33269.48863
569.033	32940.283
569.237	33410.5992
569.442	33443.32251
