Data from mixed_try1_USB4F045381__10__00032.txt Node

Date: Thu Apr 03 19:32:53 EDT 2025
User: mmckonesweet
Spectrometer: USB4F04538
Trigger mode: 4
Integration Time (sec): 2.700000E-3
Scans to average: 1
Electric dark correction enabled: true
Nonlinearity correction enabled: true
Boxcar width: 0
XAxis mode: Wavelengths
Number of Pixels in Spectrum: 3648
>>>>>Begin Spectral Data<<<<<
345.52	36.00449
345.736	36.00449
345.952	36.00449
346.168	-48.28761
346.384	-12.46822
346.6	23.35822
346.816	12.82031
347.032	-6.14641
347.248	-71.461
347.464	2.283
347.68	-12.46822
347.896	-29.32529
348.112	65.5157
348.328	-27.21824
348.544	25.46587
348.76	14.92785
348.975	2.283
349.191	-27.21824
349.407	-56.71465
349.623	29.68125
349.839	4.39042
350.055	-23.00407
350.27	-23.00407
350.486	-4.03909
350.702	27.57355
350.918	-6.14641
351.133	-39.86016
351.349	12.82031
351.565	31.78897
351.781	-31.43231
351.996	-39.86016
352.212	27.57355
352.428	33.89672
352.644	23.35822
352.859	-73.56752
353.075	-56.71465
353.291	27.57355
353.506	-6.14641
353.722	48.65159
353.938	-10.36097
354.153	10.7128
354.369	-1.93175
354.584	-29.32529
354.8	-6.14641
355.016	36.00449
355.231	2.283
355.447	-4.03909
355.662	40.22009
355.878	52.86748
356.093	-12.46822
356.309	-56.71465
356.524	-23.00407
356.74	46.54368
356.955	33.89672
357.171	6.49786
357.386	25.46587
357.602	-20.89695
357.817	-27.21824
358.033	36.00449
358.248	23.35822
358.464	2.283
358.679	-52.50118
358.895	-14.57544
359.11	-6.14641
359.325	10.7128
359.541	-107.26832
359.756	12.82031
359.972	-1.93175
360.187	52.86748
360.402	4.39042
360.618	27.57355
360.833	69.73195
361.048	27.57355
361.264	-29.32529
361.479	12.82031
361.694	-73.56752
361.909	-6.14641
362.125	-39.86016
362.34	40.22009
362.555	44.4358
362.77	-14.57544
362.986	19.14299
363.201	-39.86016
363.416	36.00449
363.631	-16.68263
363.847	-18.7898
364.062	6.49786
364.277	-44.07393
364.492	78.16474
364.707	-37.75323
364.922	12.82031
365.138	38.11228
365.353	-67.24789
365.568	4.39042
365.783	-41.96706
365.998	2.283
366.213	2.283
366.428	-6.14641
366.643	50.75953
366.858	-77.78048
367.073	27.57355
367.288	-46.18078
367.503	-14.57544
367.718	-90.41875
367.933	-10.36097
368.148	71.84011
368.363	61.29953
368.578	-33.53931
368.793	-6.14641
369.008	-20.89695
369.223	-52.50118
369.438	-25.11117
369.653	50.75953
369.868	0.17561
370.083	33.89672
370.298	44.4358
370.513	-50.3944
370.728	54.97546
370.943	6.49786
371.157	-35.64629
371.372	-6.14641
371.587	61.29953
371.802	4.39042
372.017	42.32793
372.232	12.82031
372.446	-46.18078
372.661	6.49786
372.876	48.65159
373.091	84.48956
373.306	-27.21824
373.52	82.38126
373.735	-31.43231
373.95	2.283
374.165	27.57355
374.379	27.57355
374.594	2.283
374.809	12.82031
375.023	59.19149
375.238	-20.89695
375.453	-14.57544
375.667	25.46587
375.882	2.283
376.097	-18.7898
376.311	-60.92802
376.526	-6.14641
376.741	54.97546
376.955	-14.57544
377.17	-71.461
377.384	31.78897
377.599	2.283
377.813	10.7128
378.028	31.78897
378.242	2.283
378.457	38.11228
378.672	-4.03909
378.886	25.46587
379.101	27.57355
379.315	4.39042
379.53	-20.89695
379.744	-16.68263
379.958	50.75953
380.173	14.92785
380.387	-4.03909
380.602	52.86748
380.816	-63.03467
381.031	10.7128
381.245	2.283
381.459	-52.50118
381.674	-73.56752
381.888	-31.43231
382.103	6.49786
382.317	19.14299
382.531	-6.14641
382.746	2.283
382.96	-27.21824
383.174	10.7128
383.388	19.14299
383.603	-56.71465
383.817	-20.89695
384.031	63.4076
384.246	25.46587
384.46	-56.71465
384.674	14.92785
384.888	-35.64629
385.103	2.283
385.317	4.39042
385.531	-44.07393
385.745	27.57355
385.959	78.16474
386.174	-52.50118
386.388	38.11228
386.602	-75.67402
386.816	-6.14641
387.03	-69.35446
387.244	-14.57544
387.458	4.39042
387.672	21.25059
387.887	10.7128
388.101	21.25059
388.315	-54.60793
388.529	-29.32529
388.743	14.92785
388.957	46.54368
389.171	21.25059
389.385	-31.43231
389.599	-27.21824
389.813	40.22009
390.027	4.39042
390.241	-23.00407
390.455	-18.7898
390.669	-31.43231
390.883	73.9483
391.097	69.73195
391.311	-56.71465
391.525	-65.14129
391.738	52.86748
391.952	-71.461
392.166	36.00449
392.38	2.283
392.594	-46.18078
392.808	23.35822
393.022	14.92785
393.236	44.4358
393.449	-56.71465
393.663	95.03138
393.877	52.86748
394.091	-23.00407
394.305	8.60532
394.518	-29.32529
394.732	10.7128
394.946	42.32793
395.16	-56.71465
395.373	27.57355
395.587	-18.7898
395.801	88.70622
396.015	27.57355
396.228	-16.68263
396.442	2.283
396.656	-14.57544
396.869	-12.46822
397.083	36.00449
397.297	-71.461
397.51	46.54368
397.724	-73.56752
397.938	2.283
398.151	-31.43231
398.365	27.57355
398.578	40.22009
398.792	-14.57544
399.005	25.46587
399.219	21.25059
399.433	-18.7898
399.646	44.4358
399.86	-4.03909
400.073	44.4358
400.287	-75.67402
400.5	-94.6313
400.714	40.22009
400.927	29.68125
401.141	44.4358
401.354	38.11228
401.567	31.78897
401.781	23.35822
401.994	-20.89695
402.208	-1.93175
402.421	-33.53931
402.635	-4.03909
402.848	-39.86016
403.061	42.32793
403.275	-6.14641
403.488	-14.57544
403.701	-27.21824
403.915	-23.00407
404.128	-25.11117
404.341	6.49786
404.555	-14.57544
404.768	-41.96706
404.981	46.54368
405.195	23.35822
405.408	-52.50118
405.621	48.65159
405.834	6.49786
406.048	-73.56752
406.261	-14.57544
406.474	52.86748
406.687	21.25059
406.9	6.49786
407.114	-31.43231
407.327	-29.32529
407.54	-37.75323
407.753	31.78897
407.966	65.5157
408.179	-29.32529
408.392	-60.92802
408.605	-14.57544
408.819	10.7128
409.032	27.57355
409.245	40.22009
409.458	-10.36097
409.671	21.25059
409.884	95.03138
410.097	17.0354
410.31	48.65159
410.523	-10.36097
410.736	-63.03467
410.949	29.68125
411.162	4.39042
411.375	-18.7898
411.588	33.89672
411.801	27.57355
412.014	-23.00407
412.227	57.08346
412.44	2.283
412.653	-48.28761
412.865	-46.18078
413.078	-1.93175
413.291	-12.46822
413.504	-27.21824
413.717	-65.14129
413.93	-4.03909
414.143	-14.57544
414.356	-86.2061
414.568	4.39042
414.781	6.49786
414.994	-1.93175
415.207	0.17561
415.42	73.9483
415.632	69.73195
415.845	86.59788
416.058	8.60532
416.271	10.7128
416.483	14.92785
416.696	14.92785
416.909	-37.75323
417.121	2.283
417.334	38.11228
417.547	-41.96706
417.759	8.60532
417.972	86.59788
418.185	-14.57544
418.397	-8.2537
418.61	78.16474
418.823	-18.7898
419.035	12.82031
419.248	-14.57544
419.46	-33.53931
419.673	-8.2537
419.885	-14.57544
420.098	6.49786
420.311	4.39042
420.523	33.89672
420.736	52.86748
420.948	2.283
421.161	6.49786
421.373	52.86748
421.586	44.4358
421.798	-10.36097
422.01	-56.71465
422.223	-12.46822
422.435	6.49786
422.648	-39.86016
422.86	21.25059
423.073	2.283
423.285	14.92785
423.497	29.68125
423.71	23.35822
423.922	10.7128
424.134	10.7128
424.347	19.14299
424.559	50.75953
424.771	-12.46822
424.984	-12.46822
425.196	12.82031
425.408	23.35822
425.621	-67.24789
425.833	46.54368
426.045	10.7128
426.257	2.283
426.47	-6.14641
426.682	14.92785
426.894	-37.75323
427.106	-4.03909
427.318	-10.36097
427.531	-69.35446
427.743	40.22009
427.955	-6.14641
428.167	21.25059
428.379	27.57355
428.591	12.82031
428.804	-29.32529
429.016	63.4076
429.228	4.39042
429.44	52.86748
429.652	12.82031
429.864	78.16474
430.076	2.283
430.288	36.00449
430.5	86.59788
430.712	-35.64629
430.924	-6.14641
431.136	40.22009
431.348	-35.64629
431.56	33.89672
431.772	-33.53931
431.984	44.4358
432.196	6.49786
432.408	6.49786
432.62	61.29953
432.832	29.68125
433.044	40.22009
433.256	6.49786
433.468	-35.64629
433.679	-8.2537
433.891	6.49786
434.103	69.73195
434.315	-6.14641
434.527	2.283
434.739	-6.14641
434.95	4.39042
435.162	10.7128
435.374	14.92785
435.586	-37.75323
435.798	36.00449
436.009	38.11228
436.221	52.86748
436.433	-6.14641
436.645	21.25059
436.856	44.4358
437.068	21.25059
437.28	-10.36097
437.491	14.92785
437.703	-77.78048
437.915	38.11228
438.126	-25.11117
438.338	2.283
438.55	44.4358
438.761	12.82031
438.973	2.283
439.184	57.08346
439.396	95.03138
439.608	-1.93175
439.819	-14.57544
440.031	86.59788
440.242	29.68125
440.454	25.46587
440.665	59.19149
440.877	-81.99334
441.088	10.7128
441.3	-37.75323
441.511	69.73195
441.723	-10.36097
441.934	-18.7898
442.146	63.4076
442.357	14.92785
442.569	132.98649
442.78	38.11228
442.991	-29.32529
443.203	19.14299
443.414	2.283
443.626	4.39042
443.837	-35.64629
444.048	-39.86016
444.26	-10.36097
444.471	86.59788
444.682	48.65159
444.894	46.54368
445.105	-37.75323
445.316	-48.28761
445.528	52.86748
445.739	2.283
445.95	19.14299
446.161	61.29953
446.373	40.22009
446.584	-31.43231
446.795	52.86748
447.006	-12.46822
447.217	19.14299
447.429	-69.35446
447.64	31.78897
447.851	23.35822
448.062	10.7128
448.273	-20.89695
448.484	-98.84375
448.695	29.68125
448.907	19.14299
449.118	88.70622
449.329	23.35822
449.54	31.78897
449.751	-20.89695
449.962	19.14299
450.173	-23.00407
450.384	-6.14641
450.595	-23.00407
450.806	-23.00407
451.017	-37.75323
451.228	52.86748
451.439	44.4358
451.65	-71.461
451.861	-4.03909
452.072	46.54368
452.283	-35.64629
452.494	-54.60793
452.705	29.68125
452.915	44.4358
453.126	-18.7898
453.337	38.11228
453.548	21.25059
453.759	-27.21824
453.97	-12.46822
454.181	-10.36097
454.391	54.97546
454.602	6.49786
454.813	2.283
455.024	71.84011
455.235	12.82031
455.445	-12.46822
455.656	52.86748
455.867	54.97546
456.078	19.14299
456.288	-31.43231
456.499	40.22009
456.71	-35.64629
456.921	-56.71465
457.131	-73.56752
457.342	-4.03909
457.553	-1.93175
457.763	38.11228
457.974	-6.14641
458.184	54.97546
458.395	-73.56752
458.606	-23.00407
458.816	29.68125
459.027	-65.14129
459.237	69.73195
459.448	-25.11117
459.659	23.35822
459.869	33.89672
460.08	-65.14129
460.29	44.4358
460.501	19.14299
460.711	4.39042
460.922	92.92297
461.132	-6.14641
461.343	-29.32529
461.553	54.97546
461.764	-1.93175
461.974	10.7128
462.184	-39.86016
462.395	4.39042
462.605	65.5157
462.816	-10.36097
463.026	2.283
463.236	29.68125
463.447	33.89672
463.657	46.54368
463.867	-6.14641
464.078	65.5157
464.288	-31.43231
464.498	-52.50118
464.709	-20.89695
464.919	29.68125
465.129	38.11228
465.339	-12.46822
465.55	-6.14641
465.76	63.4076
465.97	19.14299
466.18	21.25059
466.391	52.86748
466.601	25.46587
466.811	-46.18078
467.021	-31.43231
467.231	-56.71465
467.441	-48.28761
467.651	8.60532
467.862	-1.93175
468.072	-23.00407
468.282	-31.43231
468.492	-4.03909
468.702	-4.03909
468.912	-6.14641
469.122	12.82031
469.332	-48.28761
469.542	-63.03467
469.752	-46.18078
469.962	78.16474
470.172	-14.57544
470.382	12.82031
470.592	17.0354
470.802	44.4358
471.012	21.25059
471.222	61.29953
471.432	52.86748
471.642	4.39042
471.852	2.283
472.062	48.65159
472.272	21.25059
472.482	80.27299
472.691	-4.03909
472.901	57.08346
473.111	27.57355
473.321	36.00449
473.531	27.57355
473.741	36.00449
473.95	-4.03909
474.16	69.73195
474.37	31.78897
474.58	71.84011
474.79	-10.36097
474.999	69.73195
475.209	-18.7898
475.419	40.22009
475.628	73.9483
475.838	-8.2537
476.048	21.25059
476.258	36.00449
476.467	-20.89695
476.677	19.14299
476.886	21.25059
477.096	63.4076
477.306	-63.03467
477.515	10.7128
477.725	-4.03909
477.935	69.73195
478.144	38.11228
478.354	36.00449
478.563	52.86748
478.773	-12.46822
478.982	29.68125
479.192	86.59788
479.401	52.86748
479.611	19.14299
479.82	27.57355
480.03	44.4358
480.239	67.62381
480.449	12.82031
480.658	14.92785
480.868	52.86748
481.077	2.283
481.287	27.57355
481.496	0.17561
481.705	44.4358
481.915	31.78897
482.124	-31.43231
482.333	52.86748
482.543	103.46523
482.752	31.78897
482.961	-6.14641
483.171	97.13981
483.38	25.46587
483.589	25.46587
483.799	99.24826
484.008	111.89944
484.217	27.57355
484.426	27.57355
484.636	44.4358
484.845	21.25059
485.054	-52.50118
485.263	-16.68263
485.472	76.05651
485.682	103.46523
485.891	-31.43231
486.1	36.00449
486.309	33.89672
486.518	78.16474
486.727	-6.14641
486.936	4.39042
487.146	69.73195
487.355	-23.00407
487.564	69.73195
487.773	23.35822
487.982	40.22009
488.191	19.14299
488.4	107.68229
488.609	73.9483
488.818	46.54368
489.027	63.4076
489.236	27.57355
489.445	54.97546
489.654	36.00449
489.863	48.65159
490.072	78.16474
490.281	21.25059
490.49	-29.32529
490.698	-33.53931
490.907	25.46587
491.116	33.89672
491.325	21.25059
491.534	33.89672
491.743	23.35822
491.952	82.38126
492.16	88.70622
492.369	31.78897
492.578	63.4076
492.787	31.78897
492.996	52.86748
493.204	31.78897
493.413	97.13981
493.622	21.25059
493.831	107.68229
494.039	25.46587
494.248	86.59788
494.457	44.4358
494.665	44.4358
494.874	38.11228
495.083	46.54368
495.291	14.92785
495.5	80.27299
495.709	36.00449
495.917	71.84011
496.126	-14.57544
496.335	17.0354
496.543	54.97546
496.752	65.5157
496.96	154.07568
497.169	71.84011
497.377	63.4076
497.586	33.89672
497.794	21.25059
498.003	61.29953
498.211	50.75953
498.42	95.03138
498.628	111.89944
498.837	31.78897
499.045	107.68229
499.254	103.46523
499.462	52.86748
499.671	97.13981
499.879	105.57375
500.087	107.68229
500.296	105.57375
500.504	71.84011
500.713	40.22009
500.921	57.08346
501.129	52.86748
501.338	76.05651
501.546	76.05651
501.754	80.27299
501.962	88.70622
502.171	132.98649
502.379	54.97546
502.587	78.16474
502.795	105.57375
503.004	48.65159
503.212	59.19149
503.42	57.08346
503.628	154.07568
503.837	141.42191
504.045	116.11668
504.253	95.03138
504.461	86.59788
504.669	124.55141
504.877	103.46523
505.085	105.57375
505.294	95.03138
505.502	170.94855
505.71	189.93211
505.918	130.87769
506.126	154.07568
506.334	141.42191
506.542	147.7487
506.75	103.46523
506.958	149.85767
507.166	154.07568
507.374	181.49477
507.582	103.46523
507.79	200.47924
507.998	92.92297
508.206	114.00805
508.414	2.283
508.622	128.76891
508.83	95.03138
509.037	122.44269
509.245	240.56291
509.453	80.27299
509.661	154.07568
509.869	122.44269
510.077	139.31302
510.285	141.42191
510.492	187.82274
510.7	97.13981
510.908	141.42191
511.116	170.94855
511.324	99.24826
511.531	88.70622
511.739	128.76891
511.947	200.47924
512.155	130.87769
512.362	192.04149
512.57	149.85767
512.778	151.96666
512.985	107.68229
513.193	130.87769
513.401	181.49477
513.608	189.93211
513.816	145.63975
514.024	181.49477
514.231	204.69824
514.439	257.44235
514.646	111.89944
514.854	187.82274
515.061	154.07568
515.269	156.18471
515.477	166.73021
515.684	282.76378
515.892	99.24826
516.099	291.20486
516.307	179.38548
516.514	236.34324
516.722	164.62107
516.929	183.60407
517.136	162.51195
517.344	166.73021
517.551	230.01389
517.759	196.26033
517.966	196.26033
518.173	179.38548
518.381	145.63975
518.588	132.98649
518.796	282.76378
519.003	234.23344
519.21	297.53586
519.418	240.56291
519.625	261.6624
519.832	263.77245
520.039	223.68471
520.247	293.31517
520.454	276.43317
520.661	238.45306
520.868	232.12365
521.076	276.43317
521.283	259.55236
521.49	335.52528
521.697	327.08269
521.904	272.21286
522.112	221.57502
522.319	221.57502
522.526	251.11241
522.733	284.87402
522.94	322.8615
523.147	299.64623
523.354	291.20486
523.561	403.07593
523.768	249.00247
523.975	213.13647
524.183	192.04149
524.39	352.41131
524.597	249.00247
524.804	305.97745
525.011	255.33235
525.218	341.85741
525.425	280.65356
525.632	322.8615
525.838	348.18969
526.045	253.22237
526.252	270.10273
526.459	373.52039
526.666	362.96564
526.873	327.08269
527.08	335.52528
527.287	409.40968
527.494	257.44235
527.701	301.75662
527.907	356.63299
528.114	428.41181
528.321	390.40887
528.528	449.52678
528.735	331.30395
528.941	390.40887
529.148	398.85351
529.355	305.97745
529.562	491.76134
529.768	386.18665
529.975	417.85491
530.182	398.85351
530.388	320.75093
530.595	474.86679
530.802	483.31395
531.008	508.65683
531.215	432.63468
531.422	434.74613
531.628	449.52678
531.835	508.65683
532.042	377.74241
532.248	502.32091
532.455	447.41521
532.661	441.0806
532.868	483.31395
533.074	517.10492
533.281	500.20897
533.487	527.66536
533.694	384.07557
533.9	629.0628
534.107	470.64331
534.313	576.24783
534.52	474.86679
534.726	614.27381
534.933	542.45056
535.139	521.32906
535.345	534.00179
535.552	730.48869
535.758	622.72459
535.965	576.24783
536.171	561.4611
536.377	639.62674
536.584	648.07811
536.79	669.20737
536.996	584.69769
537.203	652.30387
537.409	673.43336
537.615	681.88549
537.821	500.20897
538.028	760.07603
538.234	677.6594
538.44	692.4509
538.646	580.47273
538.853	762.18949
539.059	694.56402
539.265	703.0166
539.471	694.56402
539.677	825.5978
539.883	656.52967
540.09	787.55177
540.296	662.86847
540.502	745.2821
540.708	705.12977
540.914	812.91545
541.12	673.43336
541.326	867.8746
541.532	798.1198
541.738	880.55831
541.944	677.6594
542.15	838.28047
542.356	857.30507
542.562	867.8746
542.768	905.92662
542.974	897.47039
543.18	791.77895
543.386	891.1283
543.592	884.78628
543.798	914.38297
544.004	876.33038
544.21	891.1283
544.415	939.75276
544.621	950.32382
544.827	905.92662
545.033	1136.4
545.239	933.41021
545.445	1026.44046
545.651	946.09537
545.856	1043.35637
546.062	998.95292
546.268	1066.61634
546.474	1030.6694
546.679	882.67229
546.885	969.35217
547.091	1079.30388
547.297	973.58077
547.502	1062.38721
547.708	990.49543
547.914	996.83854
548.119	1013.75377
548.325	1032.78388
548.531	956.66654
548.736	1049.69993
548.942	969.35217
549.147	1172.35107
549.353	1176.58068
549.559	1254.831
549.764	1146.97372
549.97	1252.71607
550.175	1083.5331
550.381	1142.74422
550.586	1142.74422
550.792	1197.72897
550.997	1104.6795
551.203	1212.53298
551.408	1149.08848
551.614	1307.70499
551.819	1180.81031
552.025	1352.1201
552.23	1187.15478
552.435	1438.83675
552.641	1218.87761
552.846	1453.64212
553.052	1295.01511
553.257	1396.53579
553.462	1364.81025
553.668	1525.55371
553.873	1354.23512
554.078	1504.40331
554.283	1197.72897
554.489	1514.97852
554.694	1350.00508
554.899	1407.11101
555.105	1402.88092
555.31	1593.23424
555.515	1343.66002
555.72	1618.61401
555.925	1426.14645
556.131	1504.40331
556.336	1493.82808
556.541	1612.26909
556.746	1407.11101
556.951	1608.03914
557.156	1383.84555
557.361	1637.64864
557.567	1489.59798
557.772	1591.11924
557.977	1523.43867
558.182	1671.48751
558.387	1531.89881
558.592	1654.56816
558.797	1531.89881
559.002	1671.48751
559.207	1464.21738
559.412	1718.01479
559.617	1591.11924
559.822	1760.31093
560.027	1694.75133
560.232	1794.14676
560.437	1684.17691
560.642	1756.08138
560.847	1654.56816
561.051	1777.22897
561.256	1506.51835
561.461	1756.08138
561.666	1874.50238
561.871	1817.40828
562.076	1658.79801
562.281	1711.67025
562.485	1658.79801
562.69	1711.67025
562.895	1764.54046
563.1	1999.25
563.305	1770.88474
563.509	1861.81511
563.714	1895.64743
563.919	2007.7067
564.123	1789.91734
564.328	1956.96496
564.533	1889.30397
564.737	2064.78664
564.942	1967.53645
565.147	2083.81215
565.351	1887.18947
565.556	1948.50765
565.761	1870.27331
565.965	1904.1053
566.17	1870.27331
566.374	2119.74759
566.579	1992.9074
566.784	2066.90062
566.988	1908.3342
567.193	2271.91878
567.397	1918.90636
567.602	2183.15757
567.806	1874.50238
568.011	2128.20267
568.215	2058.44468
568.42	2126.08891
568.624	2005.59254
568.828	2210.63292
569.033	2030.96209
569.237	2263.46601
569.442	2081.69824
569.646	2060.55867
569.85	2126.08891
570.055	2265.57922
570.259	2134.54389
570.463	2276.14511
570.668	2246.56003
570.872	2377.56559
571.076	2278.25827
571.281	2337.42268
571.485	2301.50232
571.689	2140.88505
571.893	2155.6808
572.098	2428.26715
572.302	2142.99875
572.506	2540.21099
572.71	2085.92606
572.914	2732.33877
573.119	2200.06565
573.323	2580.33398
573.527	2326.85816
573.731	2601.44962
573.935	2483.18691
574.139	2582.4456
574.343	2320.51933
574.547	2487.4112
574.751	2394.46678
574.955	2734.44948
575.159	2531.76351
575.364	2588.78038
575.568	2328.97108
575.772	2675.34466
575.976	2455.72795
576.18	2578.22235
576.383	2601.44962
576.587	2698.56562
576.791	2462.0648
576.995	2755.55585
577.199	2466.28931
577.403	2426.15471
577.607	2639.45469
577.811	2833.63766
578.015	2411.3673
578.219	2774.55044
578.422	2658.45572
578.626	2730.22805
578.83	2504.30791
579.034	2934.90436
579.238	2639.45469
579.442	2816.7567
579.645	2500.0838
579.849	2833.63766
580.053	2759.77697
580.257	2972.87072
580.46	2749.22408
580.664	3065.65676
580.868	2772.43999
581.071	2949.66962
581.275	2717.56343
581.479	2924.3573
581.682	2863.17719
581.886	3069.8736
582.09	2979.19797
582.293	3154.19708
582.497	2808.31589
582.7	3204.77879
