Data from mixed_try1_USB4F045381__41__00063.txt Node

Date: Thu Apr 03 19:38:59 EDT 2025
User: mmckonesweet
Spectrometer: USB4F04538
Trigger mode: 4
Integration Time (sec): 2.700000E-3
Scans to average: 1
Electric dark correction enabled: true
Nonlinearity correction enabled: true
Boxcar width: 0
XAxis mode: Wavelengths
Number of Pixels in Spectrum: 3648
>>>>>Begin Spectral Data<<<<<
345.52	-24.75999
345.736	-24.75999
345.952	-24.75999
346.168	40.5714
346.384	2.63424
346.6	-3.68787
346.816	49.00291
347.032	23.70949
347.248	23.70949
347.464	2.63424
347.68	6.8491
347.896	-12.11701
348.112	6.8491
348.328	-31.08114
348.544	-73.21644
348.76	-14.22423
348.975	21.60186
349.191	-50.04327
349.407	-5.79519
349.623	-52.15005
349.839	4.74166
350.055	2.63424
350.27	-3.68787
350.486	-52.15005
350.702	-60.57691
350.918	-75.32294
351.133	-26.86706
351.349	17.38667
351.565	-12.11701
351.781	-5.79519
351.996	-56.36353
352.212	32.14026
352.428	27.92483
352.644	-66.89679
352.859	-69.00336
353.075	-28.97412
353.291	-3.68787
353.506	40.5714
353.722	-24.75999
353.938	-5.79519
354.153	2.63424
354.369	-18.43861
354.584	-14.22423
354.8	-22.65289
355.016	-43.72279
355.231	-81.64228
355.447	-62.68356
355.662	-18.43861
355.878	27.92483
356.093	2.63424
356.309	11.06405
356.524	4.74166
356.74	15.2791
356.955	-18.43861
357.171	-1.58052
357.386	-33.18815
357.602	11.06405
357.817	-1.58052
358.033	-18.43861
358.248	-47.93647
358.464	84.84094
358.679	-10.00976
358.895	13.17157
359.11	-28.97412
359.325	-14.22423
359.541	-10.00976
359.756	-54.2568
359.972	11.06405
360.187	-28.97412
360.402	46.895
360.618	19.49425
360.833	53.21881
361.048	-69.00336
361.264	-14.22423
361.479	-26.86706
361.694	19.49425
361.909	11.06405
362.125	51.11085
362.34	-37.40208
362.555	11.06405
362.77	40.5714
362.986	-14.22423
363.201	-64.79019
363.416	-28.97412
363.631	27.92483
363.847	-69.00336
364.062	19.49425
364.277	27.92483
364.492	34.24801
364.707	-31.08114
364.922	13.17157
365.138	49.00291
365.353	30.03253
365.568	-31.08114
365.783	-73.21644
365.998	38.46358
366.213	-37.40208
366.428	53.21881
366.643	-3.68787
366.858	-10.00976
367.073	36.35578
367.288	4.74166
367.503	19.49425
367.718	38.46358
367.933	21.60186
368.148	4.74166
368.363	-87.96139
368.578	6.8491
368.793	-69.00336
369.008	-31.08114
369.223	30.03253
369.438	46.895
369.653	-37.40208
369.868	23.70949
370.083	-22.65289
370.298	-22.65289
370.513	-47.93647
370.728	-28.97412
370.943	-85.85504
371.157	-31.08114
371.372	4.74166
371.587	11.06405
371.802	-24.75999
372.017	11.06405
372.232	-3.68787
372.446	11.06405
372.661	57.4348
372.876	-71.10991
373.091	63.75895
373.306	-35.29512
373.52	4.74166
373.735	-12.11701
373.95	4.74166
374.165	-14.22423
374.379	-22.65289
374.594	-37.40208
374.809	11.06405
375.023	-1.58052
375.238	27.92483
375.453	15.2791
375.667	-33.18815
375.882	11.06405
376.097	-43.72279
376.311	15.2791
376.526	27.92483
376.741	-62.68356
376.955	21.60186
377.17	6.8491
377.384	-5.79519
377.599	-47.93647
377.813	2.63424
378.028	-39.50901
378.242	11.06405
378.457	78.51611
378.672	36.35578
378.886	-60.57691
379.101	-35.29512
379.315	36.35578
379.53	67.97517
379.744	19.49425
379.958	70.08331
380.173	19.49425
380.387	-37.40208
380.602	13.17157
380.816	44.78711
381.031	27.92483
381.245	-26.86706
381.459	-26.86706
381.674	53.21881
381.888	-26.86706
382.103	-20.54576
382.317	6.8491
382.531	25.81715
382.746	-47.93647
382.96	23.70949
383.174	15.2791
383.388	30.03253
383.603	40.5714
383.817	6.8491
384.031	53.21881
384.246	-98.49271
384.46	-14.22423
384.674	4.74166
384.888	-39.50901
385.103	21.60186
385.317	-12.11701
385.531	-5.79519
385.745	-62.68356
385.959	-43.72279
386.174	-54.2568
386.388	-10.00976
386.602	-14.22423
386.816	-66.89679
387.03	-1.58052
387.244	-14.22423
387.458	-12.11701
387.672	-39.50901
387.887	40.5714
388.101	-45.82964
388.315	-22.65289
388.529	-14.22423
388.743	15.2791
388.957	55.32679
389.171	36.35578
389.385	53.21881
389.599	-18.43861
389.813	44.78711
390.027	-3.68787
390.241	17.38667
390.455	-102.70506
390.669	-14.22423
390.883	-18.43861
391.097	-39.50901
391.311	-47.93647
391.525	-14.22423
391.738	-22.65289
391.952	15.2791
392.166	19.49425
392.38	13.17157
392.594	-56.36353
392.808	19.49425
393.022	-58.47023
393.236	11.06405
393.449	27.92483
393.663	40.5714
393.877	63.75895
394.091	32.14026
394.305	19.49425
394.518	4.74166
394.732	27.92483
394.946	-28.97412
395.16	-20.54576
395.373	30.03253
395.587	19.49425
395.801	11.06405
396.015	2.63424
396.228	-3.68787
396.442	-28.97412
396.656	44.78711
396.869	-54.2568
397.083	46.895
397.297	-12.11701
397.51	17.38667
397.724	-90.0677
397.938	17.38667
398.151	32.14026
398.365	36.35578
398.578	-18.43861
398.792	55.32679
399.005	-5.79519
399.219	-10.00976
399.433	-81.64228
399.646	-14.22423
399.86	11.06405
400.073	4.74166
400.287	25.81715
400.5	25.81715
400.714	19.49425
400.927	65.86705
401.141	-14.22423
401.354	80.62436
401.567	-1.58052
401.781	27.92483
401.994	-26.86706
402.208	40.5714
402.421	13.17157
402.635	65.86705
402.848	-35.29512
403.061	-5.79519
403.275	70.08331
403.488	-64.79019
403.701	-20.54576
403.915	-5.79519
404.128	32.14026
404.341	-5.79519
404.555	21.60186
404.768	97.49122
404.981	-31.08114
405.195	-26.86706
405.408	-24.75999
405.621	89.05761
405.834	36.35578
406.048	19.49425
406.261	67.97517
406.474	-73.21644
406.687	112.25088
406.9	13.17157
407.114	19.49425
407.327	-5.79519
407.54	30.03253
407.753	11.06405
407.966	-26.86706
408.179	-60.57691
408.392	65.86705
408.605	27.92483
408.819	27.92483
409.032	2.63424
409.245	21.60186
409.458	11.06405
409.671	27.92483
409.884	70.08331
410.097	-1.58052
410.31	34.24801
410.523	-14.22423
410.736	13.17157
410.949	-5.79519
411.162	44.78711
411.375	-22.65289
411.588	25.81715
411.801	-10.00976
412.014	49.00291
412.227	32.14026
412.44	74.29967
412.653	-28.97412
412.865	15.2791
413.078	-39.50901
413.291	-1.58052
413.504	-20.54576
413.717	82.73264
413.93	2.63424
414.143	38.46358
414.356	6.8491
414.568	86.94927
414.781	-22.65289
414.994	30.03253
415.207	6.8491
415.42	27.92483
415.632	19.49425
415.845	11.06405
416.058	-5.79519
416.271	-69.00336
416.483	32.14026
416.696	13.17157
416.909	40.5714
417.121	-12.11701
417.334	21.60186
417.547	51.11085
417.759	65.86705
417.972	-22.65289
418.185	169.1909
418.397	-31.08114
418.61	65.86705
418.823	72.19148
419.035	-12.11701
419.248	36.35578
419.46	-20.54576
419.673	27.92483
419.885	23.70949
420.098	86.94927
420.311	36.35578
420.523	78.51611
420.736	86.94927
420.948	19.49425
421.161	15.2791
421.373	25.81715
421.586	13.17157
421.798	44.78711
422.01	55.32679
422.223	49.00291
422.435	19.49425
422.648	49.00291
422.86	6.8491
423.073	36.35578
423.285	34.24801
423.497	44.78711
423.71	74.29967
423.922	40.5714
424.134	-3.68787
424.347	27.92483
424.559	17.38667
424.771	40.5714
424.984	-35.29512
425.196	-64.79019
425.408	2.63424
425.621	55.32679
425.833	53.21881
426.045	-20.54576
426.257	72.19148
426.47	188.1743
426.682	44.78711
426.894	55.32679
427.106	105.92518
427.318	40.5714
427.531	127.01161
427.743	80.62436
427.955	61.65088
428.167	63.75895
428.379	86.94927
428.591	44.78711
428.804	80.62436
429.016	97.49122
429.228	42.67924
429.44	80.62436
429.652	78.51611
429.864	89.05761
430.076	21.60186
430.288	34.24801
430.5	89.05761
430.712	70.08331
430.924	63.75895
431.136	82.73264
431.348	40.5714
431.56	67.97517
431.772	74.29967
431.984	86.94927
432.196	82.73264
432.408	61.65088
432.62	25.81715
432.832	124.90287
433.044	91.16598
433.256	53.21881
433.468	97.49122
433.679	120.68545
433.891	120.68545
434.103	108.03372
434.315	49.00291
434.527	133.33796
434.739	74.29967
434.95	188.1743
435.162	190.28367
435.374	80.62436
435.586	181.84631
435.798	198.72135
436.009	72.19148
436.221	150.20917
436.433	129.12037
436.645	158.64528
436.856	133.33796
437.068	114.35949
437.28	200.83082
437.491	211.37848
437.703	65.86705
437.915	129.12037
438.126	38.46358
438.338	70.08331
438.55	133.33796
438.761	143.8823
438.973	137.55563
439.184	129.12037
439.396	188.1743
439.608	190.28367
439.819	181.84631
440.031	131.22915
440.242	162.86346
440.454	116.46812
440.665	129.12037
440.877	105.92518
441.088	167.08173
441.3	171.30008
441.511	221.92663
441.723	198.72135
441.934	110.14229
442.146	213.48807
442.357	190.28367
442.569	209.26891
442.78	209.26891
442.991	145.99124
443.203	196.6119
443.414	129.12037
443.626	186.06495
443.837	188.1743
444.048	154.42718
444.26	196.6119
444.471	160.75436
444.682	114.35949
444.894	160.75436
445.105	232.47528
445.316	89.05761
445.528	202.94032
445.739	175.51851
445.95	181.84631
446.161	221.92663
446.373	268.3443
446.584	173.40929
446.795	230.36551
447.006	321.10269
447.217	251.46407
447.429	213.48807
447.64	198.72135
447.851	207.15936
448.062	226.14603
448.273	173.40929
448.484	190.28367
448.695	247.24421
448.907	240.91455
449.118	253.57403
449.329	221.92663
449.54	340.09847
449.751	291.55658
449.962	318.99213
450.173	156.53622
450.384	281.00526
450.595	308.43963
450.806	344.31995
451.017	373.87222
451.228	270.45441
451.439	365.42837
451.65	266.2342
451.861	213.48807
452.072	352.76311
452.283	348.54149
452.494	363.31745
452.705	289.44628
452.915	331.65572
453.126	428.76371
453.337	354.87394
453.548	264.12413
453.759	392.87187
453.97	458.32515
454.181	416.09547
454.391	327.43445
454.602	475.21875
454.813	519.56899
455.024	502.6729
455.235	411.87285
455.445	458.32515
455.656	378.09425
455.867	549.13933
456.078	460.4368
456.288	437.20952
456.499	470.99526
456.71	637.86606
456.921	479.44231
457.131	572.37505
457.342	509.00883
457.553	521.68107
457.763	479.44231
457.974	542.8026
458.184	561.81316
458.395	544.91483
458.606	561.81316
458.816	809.04035
459.027	720.27449
459.237	751.97453
459.448	688.57688
459.659	694.9162
459.869	798.47207
460.08	825.95009
460.29	703.36879
460.501	840.74658
460.711	770.99567
460.922	656.88183
461.132	927.42009
461.343	859.77128
461.553	830.17761
461.764	800.58571
461.974	785.79045
462.184	859.77128
462.395	973.93315
462.605	1075.42711
462.816	872.4548
463.026	992.96219
463.236	1079.65631
463.447	1035.25078
463.657	1024.67841
463.867	1187.50725
464.078	1153.67046
464.288	1100.80262
464.498	1221.34497
464.709	1221.34497
464.919	1210.77059
465.129	1341.89751
465.339	1253.06856
465.55	1301.71254
465.76	1274.21796
465.97	1221.34497
466.18	1426.49895
466.391	1525.90622
466.601	1439.18926
466.811	1508.9859
467.021	1587.24175
467.231	1648.57585
467.441	1489.95049
467.651	1788.15508
467.862	1705.67815
468.072	1807.18737
468.282	1921.37318
468.492	1724.71177
468.702	1893.88536
468.912	2149.69209
469.122	1805.07269
469.332	2090.50617
469.542	2175.05559
469.752	2217.32542
469.962	2175.05559
470.172	2251.13879
470.382	2268.04461
470.592	2420.16939
470.802	2242.68566
471.012	2644.0291
471.222	2553.23383
471.432	2608.13598
471.642	2580.68592
471.852	2734.80127
472.062	2724.24759
472.272	3044.92307
472.482	2791.78533
472.691	3047.03165
472.901	2909.94239
473.111	2985.8766
473.321	3103.9574
473.531	3257.80911
473.741	3238.84584
473.95	3198.80783
474.16	3175.6252
474.37	3615.7382
474.58	3419.99376
474.79	3752.45286
474.999	3617.84211
475.209	3588.38565
475.419	3748.24746
475.628	3987.82864
475.838	3651.50212
476.048	3886.98399
476.258	3853.3588
476.467	4359.28004
476.677	4363.47342
476.886	4195.67114
477.096	4365.57008
477.306	4560.46348
477.515	4390.72826
477.725	4514.37686
477.935	4562.55807
478.144	4801.1946
478.354	4771.90415
478.563	4926.6745
478.773	4985.20355
478.982	5112.65062
479.192	5118.91629
479.401	5189.91253
479.611	5129.3586
479.82	5365.19936
480.03	5421.50645
480.239	5438.18675
480.449	5596.57442
480.658	5740.25584
480.868	5904.62269
481.077	5925.41812
481.287	5779.80056
481.496	6151.9355
481.705	5844.3026
481.915	6338.75785
482.124	6328.3838
482.333	6400.98988
482.543	6376.09958
482.752	6392.69349
482.961	6657.9938
483.171	6633.13799
483.38	6591.70427
483.589	6873.27255
483.799	6943.5987
484.008	7013.89873
484.217	6842.23796
484.426	7034.57026
484.636	7005.62949
484.845	7402.1514
485.054	7272.13243
485.263	7593.9267
485.472	7270.06794
485.682	7591.86559
485.891	7439.28377
486.1	7490.84487
486.309	7604.23194
486.518	7976.92753
486.727	7882.27392
486.936	8242.14026
487.146	7882.27392
487.355	8229.81216
487.564	8223.64784
487.773	8439.29412
487.982	8320.2018
488.191	8654.72882
488.4	8373.59607
488.609	8523.44105
488.818	8595.24857
489.027	8802.33669
489.236	8759.29421
489.445	9244.60516
489.654	8929.36801
489.863	9078.84973
490.072	8951.89865
490.281	9281.42462
490.49	9318.23867
490.698	9369.3604
490.907	9252.78773
491.116	9735.0986
491.325	9692.21677
491.534	9451.13389
491.743	9641.15812
491.952	9802.47079
492.16	9773.89066
492.369	9882.07139
492.578	10108.50542
492.787	10059.56166
492.996	9949.4082
493.204	10161.51871
493.413	10181.90594
493.622	10175.78991
493.831	10379.59154
494.039	10346.99228
494.248	10473.29577
494.457	10703.36837
494.665	10509.95522
494.874	10532.35619
495.083	10727.79164
495.291	10817.32892
495.5	10731.86202
495.709	11061.40802
495.917	11063.44133
496.126	11215.90947
496.335	10849.88229
496.543	11581.59934
496.752	11163.06062
496.96	11390.66771
497.169	11323.61816
497.377	11445.51845
497.586	11549.10626
497.794	11589.72224
498.003	11437.39286
498.211	11847.54984
498.42	11520.67284
498.628	11672.97355
498.837	11583.63008
499.045	11616.12065
499.254	11920.60958
499.462	11865.81578
499.671	12044.38119
499.879	12157.98197
500.087	12210.71717
500.296	12269.53138
500.504	12348.61693
500.713	12216.80168
500.921	12510.81127
501.129	12344.56152
501.338	12383.08682
501.546	12527.0284
501.754	12405.38981
501.962	12279.67115
502.171	12679.04454
502.379	12968.79823
502.587	12798.607
502.795	12764.15885
503.004	12701.33738
503.212	13112.62206
503.42	12908.01997
503.628	12954.61706
503.837	12930.30588
504.045	13157.18227
504.253	13025.52046
504.461	13317.17597
504.669	13224.01842
504.877	13315.15091
505.085	13586.47494
505.294	13523.71196
505.502	13566.22919
505.71	13805.10795
505.918	13657.33237
506.126	13801.05953
506.334	13545.98309
506.542	13821.30155
506.75	13284.77438
506.958	14037.87412
507.166	14143.11415
507.374	13831.42246
507.582	13720.08842
507.79	13912.38717
507.998	14033.8263
508.206	14187.63701
508.414	14011.56314
508.622	14276.67982
508.83	14189.66075
509.037	14163.35194
509.245	13948.81987
509.453	14541.76511
509.661	14167.39947
509.869	14481.0608
510.077	14357.62475
510.285	14905.97144
510.492	14375.83699
510.7	14855.38873
510.908	14541.76511
511.116	14758.26882
511.324	14582.23402
511.531	14994.99629
511.739	14839.20218
511.947	14802.78231
512.155	14802.78231
512.362	14740.05865
512.57	14725.89514
512.778	15177.09101
512.985	15090.09035
513.193	15152.81176
513.401	15148.76522
513.608	15349.06948
513.816	15296.46414
514.024	15227.67279
514.231	15069.85761
514.439	15306.58054
514.646	15247.90552
514.854	15769.92555
515.061	15551.40036
515.269	15686.9657
515.477	15842.76979
515.684	15761.83183
515.892	15583.77385
516.099	15828.60552
516.307	15860.98108
516.514	16059.28854
516.722	16158.44747
516.929	15952.03903
517.136	16043.09968
517.344	15978.34515
517.551	15966.20384
517.759	16035.00528
517.966	16419.51819
518.173	16221.18268
518.381	16385.11175
518.588	16146.30536
518.796	16182.73188
519.003	16611.80045
519.21	16211.06399
519.418	16609.77633
519.625	16466.069
519.832	16785.88387
520.039	16403.32685
520.247	16710.98538
520.454	16725.15512
520.661	17059.1914
520.868	16648.23509
521.076	17211.05022
521.283	16848.63923
521.49	17067.29014
521.697	16694.79155
521.904	17259.64845
522.112	16974.15727
522.319	17338.6242
522.526	16978.20641
522.733	17306.22334
522.94	17223.19962
523.147	17107.7845
523.354	17028.82152
523.561	17603.93604
523.768	17283.9482
523.975	17741.67696
524.183	17255.59853
524.39	17731.54842
524.597	17820.68241
524.804	17946.29159
525.011	17747.75412
525.218	17824.73411
525.425	17901.71906
525.632	17834.86343
525.838	17836.8893
526.045	17901.71906
526.252	17915.90105
526.459	18240.10831
526.666	18071.91428
526.873	18428.59701
527.08	18345.49584
527.287	18381.97849
527.494	17976.68293
527.701	18852.31114
527.907	18489.40679
528.114	18921.25701
528.321	18373.87113
528.528	18501.56916
528.735	18773.23186
528.941	18850.28339
529.148	18473.19051
529.355	18862.44995
529.562	18580.62795
529.768	18817.83994
529.975	18531.9757
530.182	18846.2279
530.388	18969.92747
530.595	19010.48796
530.802	18799.59095
531.008	19318.80094
531.215	19365.46183
531.422	19550.09814
531.628	19395.89402
531.835	19063.21903
532.042	19259.97076
532.248	19608.94553
532.455	19815.95394
532.661	19746.94629
532.868	19430.38496
533.074	19876.84707
533.281	19951.9538
533.487	19921.50443
533.694	20258.53018
533.9	20299.14351
534.107	20073.76075
534.313	20404.74603
534.52	20211.82692
534.726	20414.90072
534.933	20092.03309
535.139	20439.2724
535.345	20309.2971
535.552	20234.16298
535.758	20536.76513
535.965	20435.21041
536.171	20626.14193
536.377	20880.09723
536.584	20680.99078
536.79	20703.33748
536.996	20918.7041
537.203	21008.11518
537.409	20754.1273
537.615	20825.2374
537.821	20597.70298
538.028	20967.47279
538.234	20884.16104
538.44	20941.05612
538.646	20778.50733
538.853	21012.17951
539.059	21087.37255
539.265	20924.80005
539.471	21142.24668
539.677	21300.78856
539.883	21522.38166
540.09	21591.51211
540.296	21585.41218
540.502	21683.0153
540.708	21583.37888
540.914	21870.11305
541.12	21904.68903
541.326	21640.31282
541.532	21353.64131
541.738	21565.07934
541.944	21597.61208
542.15	22126.40826
542.356	21927.06232
542.562	22325.79015
542.768	21896.55341
542.974	22368.51944
543.18	22134.5456
543.386	22285.09709
543.592	22167.09555
543.798	22647.31623
544.004	22376.65854
544.21	22517.06704
544.415	22506.89193
544.621	22706.34015
544.827	22447.87809
545.033	22598.47108
545.239	22626.96384
545.445	23201.03282
545.651	23015.75432
545.856	22749.08344
546.062	22808.1124
546.268	22779.6153
546.474	22763.33154
546.679	22201.68092
546.885	22773.50886
547.091	22913.96466
547.297	22472.29725
547.502	23144.02116
547.708	22962.82265
547.914	23011.68257
548.119	23626.66298
548.325	23380.2288
548.531	22997.43156
548.736	23404.66653
548.942	22899.71478
549.147	23164.38217
549.353	23388.37466
549.559	23667.40022
549.764	23679.62162
549.97	23315.06377
550.175	23467.7994
550.381	23968.89248
550.586	23463.72622
550.792	23773.32262
550.997	23685.73236
551.203	23628.69982
551.408	24005.56477
551.614	24470.15736
551.819	24362.14757
552.025	24254.14516
552.23	24119.66216
552.435	24119.66216
552.641	24315.27769
552.846	24386.60198
553.052	24482.38534
553.257	24494.61342
553.462	24912.45962
553.668	24484.42335
553.873	24347.88268
554.078	24800.34453
554.283	24841.11282
554.489	24714.73424
554.694	24598.55573
554.899	24614.861
555.105	24994.0023
555.31	25055.16172
555.515	24651.54844
555.72	25091.85835
555.925	24890.03603
556.131	25208.0691
556.336	25291.66368
556.541	24914.49814
556.746	24841.11282
556.951	25146.90466
557.156	24763.65388
557.361	25124.47819
557.567	25717.84643
557.772	25687.25624
557.977	25352.83272
558.182	25636.27357
558.387	25744.35828
558.592	25721.92515
558.797	25340.59876
559.002	25542.46867
559.207	25640.35214
559.412	25548.58625
559.617	25624.03791
559.822	25960.54367
560.027	25636.27357
560.232	25711.72836
560.437	25560.82147
560.642	25517.99852
560.847	25548.58625
561.051	25868.7643
561.256	25670.94165
561.461	26211.42575
561.666	26033.96981
561.871	26201.22678
562.076	26017.65269
562.281	25985.01879
562.485	25685.21691
562.69	26172.66988
562.895	25691.33491
563.1	26323.61721
563.305	26125.75572
563.509	26380.73479
563.714	26168.59035
563.919	26574.536
564.123	26225.70438
564.328	26360.33551
564.533	26015.61306
564.737	26270.58061
564.942	26692.86365
565.147	26870.36458
565.351	26594.93695
565.556	26339.93639
565.761	26454.17356
565.965	26258.34156
566.17	26233.86363
566.374	26539.85473
566.579	26745.90874
566.784	26690.82348
566.988	26621.45842
567.193	26497.0138
567.397	26492.93375
567.602	26721.42627
567.806	26097.19972
568.011	26511.29403
568.215	26909.13062
568.42	26843.84075
568.624	26925.45332
568.828	26931.57435
569.033	26772.43166
569.237	26905.04996
569.442	27325.38691
569.646	27264.16925
569.85	27613.12523
570.055	27939.66601
570.259	27982.5267
