Data from mixed_try1_USB4F045381__11__00033.txt Node

Date: Thu Apr 03 19:32:53 EDT 2025
User: mmckonesweet
Spectrometer: USB4F04538
Trigger mode: 4
Integration Time (sec): 2.700000E-3
Scans to average: 1
Electric dark correction enabled: true
Nonlinearity correction enabled: true
Boxcar width: 0
XAxis mode: Wavelengths
Number of Pixels in Spectrum: 3648
>>>>>Begin Spectral Data<<<<<
345.52	-21.24814
345.736	-21.24814
345.952	-21.24814
346.168	-6.49763
346.384	-44.42508
346.6	-50.74553
346.816	-35.99745
347.032	6.14661
347.248	6.14661
347.464	-8.60492
347.68	10.36155
347.896	-48.63874
348.112	27.22227
348.328	-25.46235
348.544	69.38059
348.76	6.14661
348.975	44.08449
349.191	31.43768
349.407	-8.60492
349.623	-10.71218
349.839	-2.28298
350.055	4.03918
350.27	-6.49763
350.486	-35.99745
350.702	6.14661
350.918	-8.60492
351.133	-23.35526
351.349	-27.56942
351.565	14.57659
351.781	46.19237
351.996	65.16435
352.212	6.14661
352.428	-88.66349
352.644	54.62413
352.859	54.62413
353.075	-27.56942
353.291	-17.03383
353.506	-19.141
353.722	18.79172
353.938	54.62413
354.153	44.08449
354.369	-40.21131
354.584	-23.35526
354.8	-19.141
355.016	-31.78348
355.231	73.59693
355.447	10.36155
355.662	50.4082
355.878	-29.67646
356.093	41.97663
356.309	-23.35526
356.524	37.76098
356.74	-4.39031
356.955	6.14661
357.171	-52.8523
357.386	25.11459
357.602	25.11459
357.817	69.38059
358.033	52.51615
358.248	-27.56942
358.464	-27.56942
358.679	18.79172
358.895	-27.56942
359.11	103.11382
359.325	39.86879
359.541	23.00695
359.756	14.57659
359.972	6.14661
360.187	14.57659
360.402	-33.89048
360.618	-4.39031
360.833	-12.81942
361.048	18.79172
361.264	14.57659
361.479	56.73213
361.694	8.25407
361.909	52.51615
362.125	8.25407
362.34	41.97663
362.555	-50.74553
362.77	-31.78348
362.986	18.79172
363.201	-19.141
363.416	35.65319
363.631	-33.89048
363.847	-76.0251
364.062	-10.71218
364.277	4.03918
364.492	-44.42508
364.707	31.43768
364.922	31.43768
365.138	16.68414
365.353	-2.28298
365.568	29.32996
365.783	23.00695
365.998	31.43768
366.213	-14.92664
366.428	8.25407
366.643	-19.141
366.858	-29.67646
367.073	31.43768
367.288	27.22227
367.503	6.14661
367.718	14.57659
367.933	-0.17561
368.148	31.43768
368.363	-27.56942
368.578	-38.10439
368.793	46.19237
369.008	39.86879
369.223	-17.03383
369.438	75.70514
369.653	8.25407
369.868	-35.99745
370.083	-19.141
370.298	18.79172
370.513	10.36155
370.728	8.25407
370.943	-17.03383
371.157	-42.31821
371.372	-27.56942
371.587	-17.03383
371.802	-2.28298
372.017	-8.60492
372.232	14.57659
372.446	29.32996
372.661	18.79172
372.876	14.57659
373.091	86.24649
373.306	44.08449
373.52	4.03918
373.735	-19.141
373.95	10.36155
374.165	48.30027
374.379	-57.06577
374.594	-4.39031
374.809	-17.03383
375.023	8.25407
375.238	-59.17246
375.453	31.43768
375.667	16.68414
375.882	20.89932
376.097	14.57659
376.311	-0.17561
376.526	25.11459
376.741	-2.28298
376.955	25.11459
377.17	39.86879
377.384	1.93177
377.599	1.93177
377.813	75.70514
378.028	23.00695
378.242	39.86879
378.457	-69.70555
378.672	6.14661
378.886	-2.28298
379.101	-35.99745
379.315	14.57659
379.53	-17.03383
379.744	37.76098
379.958	-6.49763
380.173	23.00695
380.387	-2.28298
380.602	65.16435
380.816	48.30027
381.031	-4.39031
381.245	35.65319
381.459	-48.63874
381.674	41.97663
381.888	27.22227
382.103	56.73213
382.317	4.03918
382.531	-25.46235
382.746	1.93177
382.96	41.97663
383.174	23.00695
383.388	58.84015
383.603	-8.60492
383.817	-0.17561
384.031	39.86879
384.246	1.93177
384.46	48.30027
384.674	-17.03383
384.888	48.30027
385.103	23.00695
385.317	-23.35526
385.531	-10.71218
385.745	73.59693
385.959	-48.63874
386.174	6.14661
386.388	10.36155
386.602	-27.56942
386.816	77.81336
387.03	-31.78348
387.244	6.14661
387.458	16.68414
387.672	69.38059
387.887	10.36155
388.101	-35.99745
388.315	35.65319
388.529	58.84015
388.743	-21.24814
388.957	-35.99745
389.171	39.86879
389.385	-8.60492
389.599	31.43768
389.813	14.57659
390.027	-42.31821
390.241	-17.03383
390.455	27.22227
390.669	-10.71218
390.883	92.57157
391.097	-33.89048
391.311	31.43768
391.525	6.14661
391.738	-31.78348
391.952	69.38059
392.166	58.84015
392.38	-21.24814
392.594	67.27246
392.808	65.16435
393.022	39.86879
393.236	-19.141
393.449	27.22227
393.663	39.86879
393.877	33.54542
394.091	8.25407
394.305	29.32996
394.518	14.57659
394.732	-2.28298
394.946	16.68414
395.16	8.25407
395.373	39.86879
395.587	-10.71218
395.801	-0.17561
396.015	20.89932
396.228	-10.71218
396.442	-2.28298
396.656	-4.39031
396.869	-8.60492
397.083	37.76098
397.297	-0.17561
397.51	-27.56942
397.724	23.00695
397.938	67.27246
398.151	-42.31821
398.365	-25.46235
398.578	16.68414
398.792	-6.49763
399.005	56.73213
399.219	-0.17561
399.433	-10.71218
399.646	58.84015
399.86	-27.56942
400.073	14.57659
400.287	48.30027
400.5	73.59693
400.714	14.57659
400.927	33.54542
401.141	-76.0251
401.354	-17.03383
401.567	6.14661
401.781	31.43768
401.994	44.08449
402.208	-10.71218
402.421	-35.99745
402.635	-17.03383
402.848	6.14661
403.061	-25.46235
403.275	-33.89048
403.488	-27.56942
403.701	23.00695
403.915	-52.8523
404.128	-2.28298
404.341	39.86879
404.555	48.30027
404.768	39.86879
404.981	-0.17561
405.195	-2.28298
405.408	56.73213
405.621	67.27246
405.834	79.92161
406.048	-8.60492
406.261	71.48875
406.474	-12.81942
406.687	48.30027
406.9	-2.28298
407.114	-35.99745
407.327	-8.60492
407.54	-6.49763
407.753	-52.8523
407.966	18.79172
408.179	6.14661
408.392	-21.24814
408.605	48.30027
408.819	39.86879
409.032	-19.141
409.245	-27.56942
409.458	4.03918
409.671	75.70514
409.884	-35.99745
410.097	23.00695
410.31	-35.99745
410.523	-19.141
410.736	-0.17561
410.949	20.89932
411.162	69.38059
411.375	14.57659
411.588	-8.60492
411.801	6.14661
412.014	-4.39031
412.227	-35.99745
412.44	39.86879
412.653	-8.60492
412.865	37.76098
413.078	20.89932
413.291	41.97663
413.504	-2.28298
413.717	-6.49763
413.93	-10.71218
414.143	35.65319
414.356	8.25407
414.568	10.36155
414.781	-14.92664
414.994	-12.81942
415.207	48.30027
415.42	33.54542
415.632	50.4082
415.845	35.65319
416.058	-38.10439
416.271	41.97663
416.483	73.59693
416.696	-42.31821
416.909	31.43768
417.121	-35.99745
417.334	-10.71218
417.547	27.22227
417.759	6.14661
417.972	71.48875
418.185	10.36155
418.397	65.16435
418.61	8.25407
418.823	-14.92664
419.035	63.05626
419.248	-23.35526
419.46	-2.28298
419.673	-40.21131
419.885	-31.78348
420.098	-31.78348
420.311	56.73213
420.523	-27.56942
420.736	14.57659
420.948	65.16435
421.161	94.67998
421.373	-0.17561
421.586	10.36155
421.798	48.30027
422.01	-78.13156
422.223	6.14661
422.435	-38.10439
422.648	-6.49763
422.86	23.00695
423.073	-8.60492
423.285	79.92161
423.497	-31.78348
423.71	6.14661
423.922	8.25407
424.134	41.97663
424.347	-25.46235
424.559	35.65319
424.771	39.86879
424.984	50.4082
425.196	41.97663
425.408	35.65319
425.621	-35.99745
425.833	-0.17561
426.045	25.11459
426.257	44.08449
426.47	33.54542
426.682	-2.28298
426.894	-44.42508
427.106	-17.03383
427.318	-19.141
427.531	14.57659
427.743	90.46319
427.955	10.36155
428.167	23.00695
428.379	14.57659
428.591	35.65319
428.804	33.54542
429.016	44.08449
429.228	6.14661
429.44	29.32996
429.652	10.36155
429.864	71.48875
430.076	37.76098
430.288	23.00695
430.5	-25.46235
430.712	27.22227
430.924	12.46906
431.136	14.57659
431.348	-0.17561
431.56	46.19237
431.772	8.25407
431.984	10.36155
432.196	10.36155
432.408	39.86879
432.62	-10.71218
432.832	-0.17561
433.044	6.14661
433.256	41.97663
433.468	-10.71218
433.679	46.19237
433.891	-31.78348
434.103	-35.99745
434.315	-10.71218
434.527	44.08449
434.739	-8.60492
434.95	-29.67646
435.162	12.46906
435.374	-2.28298
435.586	-0.17561
435.798	-10.71218
436.009	18.79172
436.221	1.93177
436.433	-35.99745
436.645	-25.46235
436.856	-50.74553
437.068	31.43768
437.28	1.93177
437.491	-2.28298
437.703	82.02988
437.915	-19.141
438.126	-46.53192
438.338	-54.95905
438.55	-8.60492
438.761	31.43768
438.973	-65.49239
439.184	-35.99745
439.396	-8.60492
439.608	-73.91861
439.819	-57.06577
440.031	50.4082
440.242	60.94819
440.454	56.73213
440.665	-76.0251
440.877	-33.89048
441.088	-50.74553
441.3	25.11459
441.511	-31.78348
441.723	50.4082
441.934	39.86879
442.146	10.36155
442.357	-17.03383
442.569	122.09124
442.78	48.30027
442.991	-40.21131
443.203	-2.28298
443.414	-27.56942
443.626	35.65319
443.837	48.30027
444.048	8.25407
444.26	-54.95905
444.471	-40.21131
444.682	31.43768
444.894	25.11459
445.105	-2.28298
445.316	8.25407
445.528	-10.71218
445.739	20.89932
445.95	-14.92664
446.161	58.84015
446.373	-10.71218
446.584	-14.92664
446.795	41.97663
447.006	-27.56942
447.217	39.86879
447.429	-10.71218
447.64	18.79172
447.851	48.30027
448.062	-6.49763
448.273	-2.28298
448.484	44.08449
448.695	-73.91861
448.907	-10.71218
449.118	8.25407
449.329	16.68414
449.54	-2.28298
449.751	-2.28298
449.962	-40.21131
450.173	4.03918
450.384	-4.39031
450.595	-10.71218
450.806	73.59693
451.017	18.79172
451.228	73.59693
451.439	1.93177
451.65	-25.46235
451.861	48.30027
452.072	65.16435
452.283	6.14661
452.494	46.19237
452.705	39.86879
452.915	-17.03383
453.126	-2.28298
453.337	-40.21131
453.548	63.05626
453.759	58.84015
453.97	-10.71218
454.181	8.25407
454.391	-57.06577
454.602	6.14661
454.813	-35.99745
455.024	-33.89048
455.235	75.70514
455.445	-44.42508
455.656	101.00532
455.867	-2.28298
456.078	37.76098
456.288	-50.74553
456.499	-52.8523
456.71	25.11459
456.921	-27.56942
457.131	-57.06577
457.342	-31.78348
457.553	82.02988
457.763	105.22233
457.974	31.43768
458.184	-2.28298
458.395	-8.60492
458.606	-44.42508
458.816	-27.56942
459.027	-61.27913
459.237	-23.35526
459.448	48.30027
459.659	-31.78348
459.869	94.67998
460.08	56.73213
460.29	90.46319
460.501	46.19237
460.711	60.94819
460.922	41.97663
461.132	-76.0251
461.343	27.22227
461.553	35.65319
461.764	-27.56942
461.974	58.84015
462.184	-14.92664
462.395	6.14661
462.605	35.65319
462.816	-44.42508
463.026	1.93177
463.236	18.79172
463.447	-52.8523
463.657	65.16435
463.867	12.46906
464.078	16.68414
464.288	14.57659
464.498	63.05626
464.709	10.36155
464.919	23.00695
465.129	14.57659
465.339	65.16435
465.55	10.36155
465.76	23.00695
465.97	58.84015
466.18	31.43768
466.391	-42.31821
466.601	31.43768
466.811	-14.92664
467.021	-2.28298
467.231	23.00695
467.441	65.16435
467.651	-35.99745
467.862	12.46906
468.072	58.84015
468.282	50.4082
468.492	48.30027
468.702	52.51615
468.912	6.14661
469.122	39.86879
469.332	18.79172
469.542	37.76098
469.752	-6.49763
469.962	8.25407
470.172	39.86879
470.382	27.22227
470.592	23.00695
470.802	-6.49763
471.012	4.03918
471.222	-46.53192
471.432	-82.34441
471.642	31.43768
471.852	-61.27913
472.062	48.30027
472.272	48.30027
472.482	50.4082
472.691	-31.78348
472.901	6.14661
473.111	14.57659
473.321	56.73213
473.531	25.11459
473.741	1.93177
473.95	-6.49763
474.16	111.54801
474.37	25.11459
474.58	67.27246
474.79	60.94819
474.999	41.97663
475.209	65.16435
475.419	20.89932
475.628	-2.28298
475.838	52.51615
476.048	18.79172
476.258	14.57659
476.467	1.93177
476.677	31.43768
476.886	69.38059
477.096	10.36155
477.306	94.67998
477.515	-6.49763
477.725	54.62413
477.935	39.86879
478.144	23.00695
478.354	52.51615
478.563	41.97663
478.773	56.73213
478.982	27.22227
479.192	27.22227
479.401	-19.141
479.611	37.76098
479.82	48.30027
480.03	90.46319
480.239	-10.71218
480.449	20.89932
480.658	90.46319
480.868	41.97663
481.077	-4.39031
481.287	-10.71218
481.496	35.65319
481.705	67.27246
481.915	48.30027
482.124	10.36155
482.333	115.76524
482.543	65.16435
482.752	60.94819
482.961	90.46319
483.171	41.97663
483.38	65.16435
483.589	82.02988
483.799	56.73213
484.008	-23.35526
484.217	73.59693
484.426	88.35483
484.636	44.08449
484.845	1.93177
485.054	52.51615
485.263	23.00695
485.472	31.43768
485.682	86.24649
485.891	79.92161
486.1	29.32996
486.309	41.97663
486.518	18.79172
486.727	136.85268
486.936	65.16435
487.146	58.84015
487.355	33.54542
487.564	10.36155
487.773	77.81336
487.982	73.59693
488.191	14.57659
488.4	39.86879
488.609	25.11459
488.818	56.73213
489.027	23.00695
489.236	65.16435
489.445	25.11459
489.654	48.30027
489.863	50.4082
490.072	69.38059
490.281	41.97663
490.49	23.00695
490.698	14.57659
490.907	-4.39031
491.116	25.11459
491.325	56.73213
491.534	35.65319
491.743	60.94819
491.952	75.70514
492.16	86.24649
492.369	10.36155
492.578	44.08449
492.787	82.02988
492.996	35.65319
493.204	41.97663
493.413	58.84015
493.622	77.81336
493.831	111.54801
494.039	35.65319
494.248	23.00695
494.457	79.92161
494.665	141.07043
494.874	94.67998
495.083	109.43943
495.291	86.24649
495.5	109.43943
495.709	39.86879
495.917	107.33087
496.126	73.59693
496.335	115.76524
496.543	98.89685
496.752	82.02988
496.96	77.81336
497.169	31.43768
497.377	65.16435
497.586	92.57157
497.794	94.67998
498.003	73.59693
498.211	37.76098
498.42	52.51615
498.628	-2.28298
498.837	44.08449
499.045	157.94226
499.254	56.73213
499.462	44.08449
499.671	96.7884
499.879	39.86879
500.087	134.74384
500.296	46.19237
500.504	96.7884
500.713	115.76524
500.921	90.46319
501.129	111.54801
501.338	73.59693
501.546	46.19237
501.754	25.11459
501.962	166.37868
502.171	90.46319
502.379	132.63502
502.587	115.76524
502.795	141.07043
503.004	124.19996
503.212	145.28826
503.42	39.86879
503.628	103.11382
503.837	90.46319
504.045	71.48875
504.253	149.50617
504.461	128.41744
504.669	58.84015
504.877	77.81336
505.085	119.98255
505.294	149.50617
505.502	143.17933
505.71	128.41744
505.918	204.34665
506.126	134.74384
506.334	94.67998
506.542	111.54801
506.75	151.61516
506.958	166.37868
507.166	23.00695
507.374	132.63502
507.582	160.05133
507.79	160.05133
507.998	65.16435
508.206	155.83321
508.414	69.38059
508.622	183.25252
508.83	157.94226
509.037	157.94226
509.245	179.03394
509.453	170.59702
509.661	151.61516
509.869	160.05133
510.077	151.61516
510.285	101.00532
510.492	168.48784
510.7	98.89685
510.908	126.30869
511.116	149.50617
511.324	82.02988
511.531	200.12766
511.739	187.47118
511.947	187.47118
512.155	153.72418
512.362	170.59702
512.57	149.50617
512.778	162.16043
512.985	132.63502
513.193	168.48784
513.401	200.12766
513.608	185.36184
513.816	208.56572
514.024	212.78487
514.231	126.30869
514.439	225.4428
514.646	166.37868
514.854	162.16043
515.061	246.5409
515.269	134.74384
515.477	193.79933
515.684	166.37868
515.892	250.76076
516.099	233.8818
516.307	246.5409
516.514	183.25252
516.722	214.89448
516.929	149.50617
517.136	212.78487
517.344	149.50617
517.551	157.94226
517.759	189.58055
517.966	278.19166
518.173	204.34665
518.381	212.78487
518.588	160.05133
518.796	204.34665
519.003	263.42077
519.21	269.75104
519.418	284.52232
519.625	242.32113
519.832	221.22341
520.039	252.87071
520.247	271.86117
520.454	238.10143
520.661	183.25252
520.868	208.56572
521.076	229.66226
521.283	259.20069
521.49	301.40489
521.697	276.08147
521.904	254.98069
522.112	292.96345
522.319	339.39489
522.526	240.21127
522.733	265.53084
522.94	299.2945
523.147	328.84154
523.354	278.19166
523.561	309.84661
523.768	303.51529
523.975	225.4428
524.183	269.75104
524.39	295.07378
524.597	311.95708
524.804	299.2945
525.011	314.06758
525.218	343.61636
525.425	364.72473
525.632	316.17809
525.838	244.431
526.045	307.73615
526.252	360.50292
526.459	385.8348
526.666	273.97131
526.873	352.0595
527.08	387.9459
527.287	364.72473
527.494	356.28118
527.701	436.5057
527.907	413.28038
528.114	438.61718
528.321	267.64093
528.528	444.95174
528.735	421.72573
528.941	349.94869
529.148	453.39803
529.355	360.50292
529.562	402.72406
529.768	487.18564
529.975	436.5057
530.182	504.08088
530.388	419.61437
530.595	550.54751
530.802	447.06329
531.008	478.73838
531.215	451.28643
531.422	478.73838
531.628	472.40309
531.835	527.31334
532.042	472.40309
532.248	489.29749
532.455	453.39803
532.661	499.85698
532.868	457.62127
533.074	578.0082
533.281	512.52884
533.487	554.77208
533.694	497.74505
533.9	491.40936
534.107	554.77208
534.313	567.44613
534.52	537.87412
534.726	567.44613
534.933	466.06793
535.139	647.72597
535.345	645.61311
535.552	630.82344
535.758	539.98631
535.965	620.25976
536.171	495.63314
536.377	723.7966
536.584	597.02077
536.79	592.79566
536.996	601.24592
537.203	744.92987
537.409	582.23313
537.615	683.64637
537.821	563.22139
538.028	711.11715
538.234	681.53331
538.44	573.78333
538.646	571.67092
538.853	728.02317
539.059	622.37247
539.265	698.43809
539.471	685.75944
539.677	744.92987
539.883	685.75944
540.09	681.53331
540.296	649.83884
540.502	740.70313
540.708	787.19951
540.914	772.40468
541.12	728.02317
541.326	816.79058
541.532	782.97236
541.738	863.29445
541.944	782.97236
542.15	723.7966
542.356	791.42669
542.562	875.97805
542.768	914.03062
542.974	971.11408
543.18	751.27006
543.386	977.45701
543.592	892.88998
543.798	886.54795
544.004	867.52228
544.21	1019.74468
544.415	903.4602
544.621	897.11805
544.827	937.28621
545.033	943.62879
545.239	977.45701
545.445	1112.78575
545.651	869.63621
545.856	996.48615
546.062	947.85722
546.268	1078.95145
546.474	1021.85913
546.679	865.40836
546.885	994.37177
547.091	998.60053
547.297	869.63621
547.502	1129.70336
547.708	971.11408
547.914	1047.23299
548.119	1002.82931
548.325	1051.46204
548.531	1038.77494
548.736	1036.66044
548.942	1013.40137
549.147	1197.3765
549.353	1078.95145
549.559	1163.53942
549.764	1093.7538
549.97	1093.7538
550.175	1205.83591
550.381	1301.00754
550.586	1184.68748
550.792	1212.1805
550.997	1207.95077
551.203	1178.34303
551.408	1110.67107
551.614	1239.67408
551.819	1171.9986
552.025	1351.76759
552.23	1157.19508
552.435	1226.98467
552.641	1366.57277
552.846	1265.05319
553.052	1231.21446
553.257	1265.05319
553.462	1279.85784
553.668	1495.59062
553.873	1288.3177
554.078	1425.79394
554.283	1281.9728
554.489	1415.21869
554.694	1427.90899
554.899	1514.62601
555.105	1366.57277
555.31	1480.78528
555.515	1383.49304
555.72	1391.9532
555.925	1377.14793
556.131	1556.92663
556.336	1413.10364
556.541	1556.92663
556.746	1391.9532
556.951	1673.24993
557.156	1436.36919
557.361	1700.74347
557.567	1611.9166
557.772	1664.79029
557.977	1506.16584
558.182	1561.15666
558.387	1546.35152
558.592	1671.13503
558.797	1434.25414
559.002	1594.99673
559.207	1649.9858
559.412	1717.66231
559.617	1571.73173
559.822	1709.20292
560.027	1535.77637
560.232	1766.30277
560.437	1656.3306
560.642	1743.04018
560.847	1656.3306
561.051	1757.8437
561.256	1789.56489
561.461	1736.69576
561.666	1717.66231
561.871	1812.82651
562.076	1700.74347
562.281	1823.3998
562.485	1597.11172
562.69	1747.26977
562.895	1755.72892
563.1	1861.46268
563.305	1677.47974
563.509	1958.72688
563.714	1874.14996
563.919	2020.03921
564.123	1698.6286
564.328	1946.04092
564.533	1895.29501
564.737	1958.72688
564.942	1878.37901
565.147	2034.83791
565.351	1941.81222
565.556	1998.89763
565.761	1969.29835
565.965	2089.80154
566.17	1924.89719
566.374	2119.39529
566.579	2062.32033
566.784	2026.38155
566.988	2047.52225
567.193	2157.44217
567.397	1969.29835
567.602	2138.41905
567.806	1882.60804
568.011	2208.16724
568.215	2237.7546
568.42	2170.12389
568.624	2039.06605
568.828	2218.73435
569.033	2068.66226
569.237	2189.14591
569.442	2189.14591
569.646	2153.21487
569.85	2261.00059
570.055	2330.73184
570.259	2075.00412
570.463	2326.506
570.668	2144.76016
570.872	2425.80264
571.076	2195.48643
571.281	2256.77413
571.485	2231.4146
571.689	2277.90607
571.893	2322.28012
572.098	2339.18341
572.302	2292.69789
572.506	2356.08606
572.71	2258.88736
572.914	2499.73179
573.119	2280.01922
573.323	2392.00206
573.527	2214.50754
573.731	2520.8519
573.935	2383.5515
574.139	2584.20527
574.343	2267.34022
574.547	2415.24025
574.751	2463.82502
574.955	2759.42521
575.159	2546.19451
575.364	2687.659
575.568	2364.53715
575.772	2624.32352
575.976	2541.97086
576.18	2588.42845
576.383	2579.98204
576.587	2712.98998
576.791	2575.75877
576.995	2706.65741
577.199	2611.65507
577.403	2613.76651
577.607	2736.2084
577.811	2643.32535
578.015	2689.76999
578.219	2780.53
578.422	2449.03895
578.626	2750.98292
578.83	2639.10281
579.034	2755.20409
579.238	2797.41285
579.442	2905.02007
579.645	2712.98998
579.849	3014.69839
580.053	2738.31908
580.257	3023.1335
580.46	2565.20037
580.664	2810.07441
580.868	2900.80087
581.071	3061.08845
581.275	2765.75679
581.479	2968.30095
581.682	2706.65741
