Data from mixed_try1_USB4F045381__25__00250.txt Node

Date: Thu Apr 03 20:25:53 EDT 2025
User: mmckonesweet
Spectrometer: USB4F04538
Trigger mode: 4
Integration Time (sec): 2.700000E-3
Scans to average: 1
Electric dark correction enabled: true
Nonlinearity correction enabled: true
Boxcar width: 0
XAxis mode: Wavelengths
Number of Pixels in Spectrum: 3648
>>>>>Begin Spectral Data<<<<<
345.52	8.95656
345.736	8.95656
345.952	8.95656
346.168	2.63424
346.384	8.95656
346.6	-54.2568
346.816	-1.58052
347.032	30.03253
347.248	15.2791
347.464	-45.82964
347.68	-5.79519
347.896	32.14026
348.112	42.67924
348.328	-5.79519
348.544	44.78711
348.76	-22.65289
348.975	-28.97412
349.191	-47.93647
349.407	-1.58052
349.623	11.06405
349.839	-7.90249
350.055	-33.18815
350.27	-69.00336
350.486	51.11085
350.702	23.70949
350.918	34.24801
351.133	-56.36353
351.349	-58.47023
351.565	0.52684
351.781	-35.29512
351.996	19.49425
352.212	-1.58052
352.428	-26.86706
352.644	46.895
352.859	44.78711
353.075	19.49425
353.291	8.95656
353.506	-7.90249
353.722	70.08331
353.938	15.2791
354.153	30.03253
354.369	23.70949
354.584	63.75895
354.8	27.92483
355.016	-5.79519
355.231	-69.00336
355.447	32.14026
355.662	-10.00976
355.878	-18.43861
356.093	0.52684
356.309	-35.29512
356.524	42.67924
356.74	67.97517
356.955	27.92483
357.171	-64.79019
357.386	-18.43861
357.602	-16.33143
357.817	-24.75999
358.033	76.40788
358.248	15.2791
358.464	-83.74867
358.679	19.49425
358.895	46.895
359.11	76.40788
359.325	23.70949
359.541	32.14026
359.756	-18.43861
359.972	32.14026
360.187	-24.75999
360.402	-7.90249
360.618	49.00291
360.833	65.86705
361.048	36.35578
361.264	46.895
361.479	-1.58052
361.694	49.00291
361.909	32.14026
362.125	4.74166
362.34	11.06405
362.555	4.74166
362.77	-37.40208
362.986	32.14026
363.201	2.63424
363.416	-18.43861
363.631	53.21881
363.847	-43.72279
364.062	-47.93647
364.277	38.46358
364.492	-18.43861
364.707	-26.86706
364.922	-3.68787
365.138	-7.90249
365.353	65.86705
365.568	-35.29512
365.783	40.5714
365.998	11.06405
366.213	17.38667
366.428	36.35578
366.643	-43.72279
366.858	91.16598
367.073	65.86705
367.288	11.06405
367.503	-5.79519
367.718	42.67924
367.933	-28.97412
368.148	32.14026
368.363	-33.18815
368.578	-39.50901
368.793	-1.58052
369.008	-16.33143
369.223	8.95656
369.438	-16.33143
369.653	-1.58052
369.868	11.06405
370.083	23.70949
370.298	-45.82964
370.513	-28.97412
370.728	11.06405
370.943	-26.86706
371.157	-7.90249
371.372	11.06405
371.587	-28.97412
371.802	6.8491
372.017	55.32679
372.232	32.14026
372.446	-85.85504
372.661	-24.75999
372.876	-43.72279
373.091	11.06405
373.306	15.2791
373.52	-12.11701
373.735	6.8491
373.95	4.74166
374.165	-26.86706
374.379	-7.90249
374.594	-31.08114
374.809	-14.22423
375.023	67.97517
375.238	84.84094
375.453	32.14026
375.667	19.49425
375.882	-16.33143
376.097	-22.65289
376.311	-1.58052
376.526	-35.29512
376.741	53.21881
376.955	23.70949
377.17	-18.43861
377.384	-14.22423
377.599	42.67924
377.813	-10.00976
378.028	-18.43861
378.242	17.38667
378.457	-24.75999
378.672	67.97517
378.886	-1.58052
379.101	42.67924
379.315	-5.79519
379.53	30.03253
379.744	19.49425
379.958	6.8491
380.173	-14.22423
380.387	2.63424
380.602	-56.36353
380.816	-43.72279
381.031	-10.00976
381.245	51.11085
381.459	13.17157
381.674	11.06405
381.888	-18.43861
382.103	2.63424
382.317	15.2791
382.531	-14.22423
382.746	-5.79519
382.96	78.51611
383.174	74.29967
383.388	-18.43861
383.603	-39.50901
383.817	-24.75999
384.031	32.14026
384.246	25.81715
384.46	-14.22423
384.674	8.95656
384.888	6.8491
385.103	-26.86706
385.317	15.2791
385.531	-16.33143
385.745	-31.08114
385.959	49.00291
386.174	19.49425
386.388	23.70949
386.602	-20.54576
386.816	40.5714
387.03	-39.50901
387.244	6.8491
387.458	27.92483
387.672	23.70949
387.887	74.29967
388.101	51.11085
388.315	-37.40208
388.529	-18.43861
388.743	-14.22423
388.957	36.35578
389.171	53.21881
389.385	-22.65289
389.599	-22.65289
389.813	57.4348
390.027	-1.58052
390.241	0.52684
390.455	53.21881
390.669	0.52684
390.883	32.14026
391.097	32.14026
391.311	0.52684
391.525	-52.15005
391.738	23.70949
391.952	17.38667
392.166	6.8491
392.38	4.74166
392.594	23.70949
392.808	44.78711
393.022	-16.33143
393.236	65.86705
393.449	101.70815
393.663	23.70949
393.877	-45.82964
394.091	-5.79519
394.305	23.70949
394.518	-31.08114
394.732	-33.18815
394.946	-26.86706
395.16	2.63424
395.373	25.81715
395.587	-10.00976
395.801	-14.22423
396.015	-1.58052
396.228	59.54283
396.442	6.8491
396.656	27.92483
396.869	15.2791
397.083	21.60186
397.297	-35.29512
397.51	-69.00336
397.724	32.14026
397.938	76.40788
398.151	8.95656
398.365	74.29967
398.578	2.63424
398.792	0.52684
399.005	57.4348
399.219	99.59967
399.433	-22.65289
399.646	63.75895
399.86	19.49425
400.073	40.5714
400.287	30.03253
400.5	-50.04327
400.714	32.14026
400.927	-47.93647
401.141	91.16598
401.354	67.97517
401.567	55.32679
401.781	-31.08114
401.994	-28.97412
402.208	19.49425
402.421	-1.58052
402.635	-47.93647
402.848	17.38667
403.061	36.35578
403.275	-7.90249
403.488	11.06405
403.701	-18.43861
403.915	23.70949
404.128	91.16598
404.341	67.97517
404.555	0.52684
404.768	25.81715
404.981	34.24801
405.195	-47.93647
405.408	6.8491
405.621	-5.79519
405.834	-14.22423
406.048	15.2791
406.261	-90.0677
406.474	0.52684
406.687	23.70949
406.9	32.14026
407.114	-47.93647
407.327	6.8491
407.54	65.86705
407.753	-5.79519
407.966	19.49425
408.179	23.70949
408.392	-10.00976
408.605	36.35578
408.819	116.46812
409.032	-31.08114
409.245	42.67924
409.458	49.00291
409.671	23.70949
409.884	-18.43861
410.097	74.29967
410.31	-26.86706
410.523	40.5714
410.736	0.52684
410.949	-64.79019
411.162	-18.43861
411.375	-14.22423
411.588	-1.58052
411.801	76.40788
412.014	8.95656
412.227	0.52684
412.44	-33.18815
412.653	-18.43861
412.865	-1.58052
413.078	-24.75999
413.291	-14.22423
413.504	-5.79519
413.717	53.21881
413.93	-31.08114
414.143	17.38667
414.356	59.54283
414.568	-18.43861
414.781	42.67924
414.994	-26.86706
415.207	27.92483
415.42	36.35578
415.632	2.63424
415.845	23.70949
416.058	-16.33143
416.271	67.97517
416.483	19.49425
416.696	70.08331
416.909	89.05761
417.121	116.46812
417.334	84.84094
417.547	49.00291
417.759	-56.36353
417.972	8.95656
418.185	-18.43861
418.397	-50.04327
418.61	2.63424
418.823	78.51611
419.035	15.2791
419.248	13.17157
419.46	34.24801
419.673	70.08331
419.885	51.11085
420.098	80.62436
420.311	95.38278
420.523	25.81715
420.736	118.57677
420.948	34.24801
421.161	38.46358
421.373	42.67924
421.586	17.38667
421.798	23.70949
422.01	82.73264
422.223	25.81715
422.435	57.4348
422.648	15.2791
422.86	2.63424
423.073	-50.04327
423.285	59.54283
423.497	40.5714
423.71	42.67924
423.922	-14.22423
424.134	-14.22423
424.347	23.70949
424.559	-18.43861
424.771	-43.72279
424.984	-56.36353
425.196	34.24801
425.408	-35.29512
425.621	82.73264
425.833	137.55563
426.045	0.52684
426.257	8.95656
426.47	-45.82964
426.682	-10.00976
426.894	27.92483
427.106	-47.93647
427.318	112.25088
427.531	-14.22423
427.743	-10.00976
427.955	-45.82964
428.167	-1.58052
428.379	25.81715
428.591	-35.29512
428.804	-31.08114
429.016	-20.54576
429.228	-14.22423
429.44	42.67924
429.652	36.35578
429.864	15.2791
430.076	-39.50901
430.288	74.29967
430.5	0.52684
430.712	2.63424
430.924	-5.79519
431.136	25.81715
431.348	-7.90249
431.56	15.2791
431.772	0.52684
431.984	-14.22423
432.196	23.70949
432.408	-18.43861
432.62	8.95656
432.832	8.95656
433.044	-22.65289
433.256	-26.86706
433.468	-18.43861
433.679	19.49425
433.891	4.74166
434.103	27.92483
434.315	40.5714
434.527	-35.29512
434.739	34.24801
434.95	13.17157
435.162	8.95656
435.374	80.62436
435.586	23.70949
435.798	34.24801
436.009	-18.43861
436.221	21.60186
436.433	40.5714
436.645	127.01161
436.856	-31.08114
437.068	-10.00976
437.28	36.35578
437.491	15.2791
437.703	34.24801
437.915	-1.58052
438.126	-1.58052
438.338	51.11085
438.55	40.5714
438.761	103.81665
438.973	32.14026
439.184	8.95656
439.396	4.74166
439.608	65.86705
439.819	59.54283
440.031	-1.58052
440.242	-69.00336
440.454	61.65088
440.665	74.29967
440.877	49.00291
441.088	70.08331
441.3	25.81715
441.511	65.86705
441.723	-69.00336
441.934	40.5714
442.146	30.03253
442.357	-26.86706
442.569	6.8491
442.78	93.27437
442.991	78.51611
443.203	2.63424
443.414	17.38667
443.626	11.06405
443.837	42.67924
444.048	30.03253
444.26	57.4348
444.471	40.5714
444.682	-1.58052
444.894	82.73264
445.105	65.86705
445.316	36.35578
445.528	34.24801
445.739	51.11085
445.95	0.52684
446.161	-14.22423
446.373	2.63424
446.584	-14.22423
446.795	32.14026
447.006	32.14026
447.217	80.62436
447.429	53.21881
447.64	4.74166
447.851	15.2791
448.062	21.60186
448.273	2.63424
448.484	6.8491
448.695	-5.79519
448.907	-16.33143
449.118	57.4348
449.329	86.94927
449.54	65.86705
449.751	6.8491
449.962	15.2791
450.173	57.4348
450.384	-1.58052
450.595	-10.00976
450.806	91.16598
451.017	67.97517
451.228	-5.79519
451.439	44.78711
451.65	70.08331
451.861	74.29967
452.072	-47.93647
452.283	65.86705
452.494	-12.11701
452.705	19.49425
452.915	30.03253
453.126	32.14026
453.337	74.29967
453.548	42.67924
453.759	-18.43861
453.97	-16.33143
454.181	99.59967
454.391	25.81715
454.602	15.2791
454.813	76.40788
455.024	46.895
455.235	65.86705
455.445	74.29967
455.656	0.52684
455.867	40.5714
456.078	82.73264
456.288	2.63424
456.499	57.4348
456.71	23.70949
456.921	38.46358
457.131	-1.58052
457.342	19.49425
457.553	-18.43861
457.763	34.24801
457.974	49.00291
458.184	8.95656
458.395	84.84094
458.606	57.4348
458.816	-31.08114
459.027	40.5714
459.237	67.97517
459.448	32.14026
459.659	51.11085
459.869	34.24801
460.08	-7.90249
460.29	86.94927
460.501	74.29967
460.711	32.14026
460.922	15.2791
461.132	82.73264
461.343	57.4348
461.553	34.24801
461.764	76.40788
461.974	103.81665
462.184	76.40788
462.395	74.29967
462.605	59.54283
462.816	114.35949
463.026	82.73264
463.236	30.03253
463.447	40.5714
463.657	4.74166
463.867	19.49425
464.078	74.29967
464.288	51.11085
464.498	74.29967
464.709	36.35578
464.919	36.35578
465.129	105.92518
465.339	49.00291
465.55	129.12037
465.76	53.21881
465.97	42.67924
466.18	25.81715
466.391	-41.61591
466.601	44.78711
466.811	118.57677
467.021	95.38278
467.231	25.81715
467.441	78.51611
467.651	8.95656
467.862	103.81665
468.072	23.70949
468.282	74.29967
468.492	23.70949
468.702	19.49425
468.912	152.31817
469.122	70.08331
469.332	25.81715
469.542	110.14229
469.752	99.59967
469.962	49.00291
470.172	160.75436
470.382	76.40788
470.592	76.40788
470.802	15.2791
471.012	103.81665
471.222	150.20917
471.432	120.68545
471.642	116.46812
471.852	122.79415
472.062	65.86705
472.272	110.14229
472.482	99.59967
472.691	137.55563
472.901	76.40788
473.111	103.81665
473.321	110.14229
473.531	152.31817
473.741	114.35949
473.95	186.06495
474.16	67.97517
474.37	82.73264
474.58	116.46812
474.79	114.35949
474.999	173.40929
475.209	84.84094
475.419	173.40929
475.628	103.81665
475.838	194.50247
476.048	152.31817
476.258	209.26891
476.467	200.83082
476.677	226.14603
476.886	186.06495
477.096	150.20917
477.306	150.20917
477.515	84.84094
477.725	238.8047
477.935	272.56455
478.144	221.92663
478.354	205.04983
478.563	299.99796
478.773	259.90403
478.982	224.03632
479.192	270.45441
479.401	228.25576
479.611	209.26891
479.82	337.98775
480.03	266.2342
480.239	285.22573
480.449	316.8816
480.658	352.76311
480.868	304.21876
481.077	337.98775
481.287	302.10835
481.496	348.54149
481.705	437.20952
481.915	506.89684
482.124	337.98775
482.333	445.65559
482.543	424.5409
482.752	403.4278
482.961	411.87285
483.171	538.57818
483.38	428.76371
483.589	475.21875
483.799	521.68107
484.008	557.58849
484.217	445.65559
484.426	608.28796
484.636	506.89684
484.845	589.27478
485.054	650.54313
485.263	542.8026
485.472	549.13933
485.682	644.20454
485.891	614.62592
486.1	688.57688
486.309	616.7386
486.518	741.40759
486.727	669.55954
486.936	790.01762
487.146	751.97453
487.355	836.51897
487.564	777.33623
487.773	878.79667
487.982	756.20138
488.191	796.35845
488.4	844.97423
488.609	931.6484
488.818	891.48064
489.027	923.1918
489.236	830.17761
489.445	1022.56395
489.654	935.87675
489.863	1105.03195
490.072	997.19094
490.281	1092.34404
490.49	1094.45868
490.698	1073.31252
490.907	1024.67841
491.116	1035.25078
491.325	1107.14661
491.534	1189.62209
491.743	1081.77092
491.952	1151.5557
492.16	1172.70354
492.369	1333.43747
492.578	1208.65573
492.787	1248.83871
492.996	1291.13766
493.204	1422.26885
493.413	1240.37905
493.622	1354.58762
493.831	1291.13766
494.039	1437.07421
494.248	1360.9327
494.457	1523.79118
494.665	1536.48138
494.874	1519.56111
495.083	1540.71144
495.291	1498.41068
495.5	1606.27666
495.709	1578.78175
495.917	1437.07421
496.126	1724.71177
496.335	1610.50661
496.543	1646.46091
496.752	1646.46091
496.96	1659.1505
497.169	1657.03557
497.377	1659.1505
497.586	1731.05625
497.794	1874.8548
498.003	1786.04035
498.211	1997.48817
498.42	1802.958
498.628	1989.03134
498.837	1811.41673
499.045	2012.28737
499.254	1847.3655
499.462	1942.51701
499.671	1997.48817
499.879	2128.55496
500.087	1925.60199
500.296	2111.64469
500.504	1986.91712
500.713	2082.05056
500.921	2010.17322
501.129	2175.05559
501.338	2003.83073
501.546	2079.93663
501.754	2094.73394
501.962	2255.3653
502.171	2113.7585
502.379	2299.74145
502.587	2113.7585
502.795	2394.81888
503.004	2287.06296
503.212	2314.53257
503.42	2297.62839
503.628	2380.03039
503.837	2337.77482
504.045	2500.43581
504.253	2544.78663
504.461	2559.56911
504.669	2439.18128
504.877	2703.13927
505.085	2510.99599
505.294	2593.35543
505.502	2536.33925
505.71	2698.91745
505.918	2420.16939
506.126	2652.47402
506.334	2745.35461
506.542	2829.76919
506.75	2593.35543
506.958	2789.67498
507.166	2720.02603
507.374	2806.55736
507.582	2669.36325
507.79	2928.92773
507.998	2717.91523
508.206	2956.34891
508.414	2755.90761
508.622	2952.13043
508.83	2882.51703
509.037	2836.0994
509.245	2859.30907
509.453	3074.44177
509.661	2947.91189
509.869	3133.46992
510.077	3133.46992
510.285	3099.74107
510.492	3129.25404
510.7	3177.73279
510.908	3116.60601
511.116	3268.34367
511.324	3110.28178
511.531	3175.6252
511.739	3167.19466
511.947	3160.87159
512.155	3154.54837
512.362	3270.45053
512.57	3152.4406
512.778	3268.34367
512.985	3377.87779
513.193	3373.6658
513.401	3323.11655
513.608	3335.7548
513.816	3327.32937
514.024	3428.4161
514.231	3148.22501
514.439	3405.25397
514.646	3384.19563
514.854	3466.31311
515.061	3276.77102
515.269	3525.25239
515.477	3497.8895
515.684	3605.21836
515.892	3367.34769
516.099	3802.91149
516.307	3537.88037
516.514	3823.93259
516.722	3411.57113
516.929	3750.35017
517.136	3754.55552
517.344	3836.5443
517.551	3714.60152
517.759	3870.17203
517.966	3672.53717
518.173	3859.66391
518.381	3643.08757
518.588	3798.70704
518.796	3840.74805
519.003	4055.03232
519.21	3819.72853
519.418	3983.62772
519.625	3874.37514
519.832	4000.43094
520.039	3870.17203
520.247	4036.13342
520.454	3752.45286
520.661	3996.23025
520.868	3979.42671
521.076	4243.92833
521.283	4199.86786
521.49	4145.30387
521.697	4174.68625
521.904	4338.31185
522.112	4099.12324
522.319	4311.04997
522.526	4243.92833
522.733	4327.82695
522.94	4086.52677
523.147	4308.95276
523.354	4302.66097
523.561	4430.55563
523.768	4441.03521
523.975	4505.99632
524.183	4168.39038
524.39	4470.37511
524.597	4499.71069
524.804	4637.94852
525.011	4420.07551
525.218	4512.28176
525.425	4642.13603
525.632	4627.47935
525.838	4564.65264
526.045	4585.59711
526.252	4361.37674
526.459	4684.00618
526.666	4648.41712
526.873	4629.57323
527.08	4480.8526
527.287	4922.49316
527.494	4813.74629
527.701	4930.85574
527.907	4704.93788
528.114	4803.28661
528.321	4932.94633
528.528	4920.40246
528.735	4995.65327
528.941	4955.94128
529.148	4805.37859
529.355	5083.40809
529.562	4899.49418
529.768	5041.62517
529.975	4759.34974
530.182	5202.43849
530.388	5129.3586
530.595	5256.70792
530.802	5081.31916
531.008	5461.11969
531.215	4999.83299
531.422	5310.96156
531.628	5277.57658
531.835	5394.39777
532.042	5281.75003
532.248	5427.76174
532.455	5227.48788
532.661	5244.18561
532.868	5214.9636
533.074	5581.99177
533.281	5200.35089
533.487	5210.78866
533.694	5350.59844
533.9	5627.81907
534.107	5500.72444
534.313	5773.55722
534.52	5677.79946
534.726	5731.92955
534.933	5538.23689
535.139	5490.30296
535.345	5650.72843
535.552	5763.15119
535.758	5619.48768
535.965	5659.05841
536.171	5650.72843
536.377	5846.38293
536.584	5892.1443
536.79	5702.78456
536.996	5756.90729
537.203	5883.8249
537.409	5848.46324
537.615	5860.94461
537.821	5939.97351
538.028	6052.21919
538.234	5885.90478
538.44	6014.8116
538.646	5819.33676
538.853	5939.97351
539.059	6060.53095
539.265	6033.51635
539.471	6023.12506
539.677	6106.23892
539.883	6191.39158
540.09	6195.54436
540.296	5998.18355
540.502	6376.09958
540.708	6081.30871
540.914	6291.0324
541.12	6222.53514
541.326	6423.80303
541.532	6280.65567
541.738	6498.44458
541.944	6342.90731
542.15	6490.15256
542.356	6268.20281
542.562	6587.56039
542.768	6400.98988
542.974	6595.84805
543.18	6330.45866
543.386	6529.53635
543.592	6471.49416
543.798	6660.06497
544.004	6432.09802
544.21	6649.7089
544.415	6554.40602
544.621	6620.70884
544.827	6597.91991
545.033	6848.44529
545.239	6622.78042
545.445	7150.28944
545.651	6728.40062
545.856	6978.75197
546.062	6660.06497
546.268	6693.20053
546.474	6885.68495
546.679	6918.78069
546.885	6668.34941
547.091	6864.99716
547.297	6614.49396
547.502	7040.77128
547.708	6755.31387
547.914	6978.75197
548.119	6827.75341
548.325	7135.82837
548.531	7046.9721
548.736	7342.31218
548.942	6887.7536
549.147	7022.16761
549.353	6978.75197
549.559	7257.68051
549.764	7063.50663
549.97	7218.4484
550.175	7111.03543
550.381	7336.12087
550.586	7195.73143
550.792	7270.06794
550.997	7162.68378
551.203	7228.77341
551.408	7146.15782
551.614	7439.28377
551.819	7461.97232
552.025	7317.54576
552.23	7276.26136
552.435	7270.06794
552.641	7571.25329
552.846	7389.77237
553.052	7587.7433
553.257	7855.51609
553.462	7449.59707
553.668	7777.28075
553.873	7680.47419
554.078	7857.57451
554.283	7647.50813
554.489	7711.37495
554.694	7707.25512
554.899	7927.54846
555.105	7628.96234
555.31	7682.53439
555.515	7752.5686
555.72	7762.86569
555.925	7571.25329
556.131	7993.3846
556.336	7855.51609
556.541	8048.9176
556.746	7703.13521
556.951	8016.01094
557.156	7925.49075
557.361	8159.93943
557.567	7976.92753
557.772	8069.48163
557.977	8108.54772
558.182	8122.93866
558.387	7958.41176
558.592	8108.54772
558.797	8094.15579
559.002	8262.68552
559.207	8145.55101
559.412	8211.31867
559.617	8127.05018
559.822	8059.19987
560.027	8057.14345
560.232	8166.1056
560.437	8314.04008
560.642	8392.07565
560.847	8106.49179
561.051	8535.75256
561.256	8279.12032
561.461	8468.03083
561.666	8435.18857
561.871	8307.87818
562.076	8447.50499
562.281	8254.46766
562.485	8094.15579
562.69	8488.55475
562.895	8297.60796
563.1	8574.73449
563.305	8422.87146
563.509	8513.18095
563.714	8353.06137
563.919	8746.99488
564.123	8344.84695
564.328	8572.68298
564.533	8634.22016
564.737	8445.4523
564.942	8420.81854
565.147	8777.74197
565.351	8634.22016
565.556	8642.42385
565.761	8443.3996
565.965	8527.54496
566.17	8461.87328
566.374	8504.97252
566.579	8578.83746
566.784	8757.24437
566.988	8773.6426
567.193	9082.94381
567.397	8607.55612
567.602	8863.81207
567.806	8589.09455
568.011	8800.28723
568.215	8915.02921
568.42	8939.60947
568.624	8673.18503
568.828	8894.5437
569.033	8736.74494
569.237	8816.6824
569.442	8921.17452
569.646	8992.85797
569.85	8872.00757
570.055	9009.23973
570.259	9037.90511
570.463	9074.75558
570.668	8796.18825
570.872	9072.70848
571.076	9093.17871
571.281	9201.64225
571.485	9191.41188
571.689	9009.23973
571.893	9140.25369
572.098	9175.04242
572.302	9099.31944
572.506	9242.55947
572.71	9017.43019
572.914	9455.22189
573.119	9082.94381
573.323	9377.53893
573.527	9195.50408
573.731	9391.85071
573.935	9449.08987
574.139	9273.24298
574.343	9265.06108
574.547	9496.09828
574.751	9328.46384
574.955	9471.57321
575.159	9447.04584
575.364	9608.4755
575.568	9459.30982
575.772	9673.83677
575.976	9575.78887
576.18	9500.18556
576.383	9393.89519
576.587	9561.48721
576.791	9539.0116
576.995	9804.51211
577.199	9845.33547
577.403	9731.01491
577.607	9583.96091
