Data from mixed_try1_USB4F045381__29__00254.txt Node

Date: Thu Apr 03 20:26:16 EDT 2025
User: mmckonesweet
Spectrometer: USB4F04538
Trigger mode: 4
Integration Time (sec): 2.700000E-3
Scans to average: 1
Electric dark correction enabled: true
Nonlinearity correction enabled: true
Boxcar width: 0
XAxis mode: Wavelengths
Number of Pixels in Spectrum: 3648
>>>>>Begin Spectral Data<<<<<
345.52	-50.74553
345.736	-50.74553
345.952	-50.74553
346.168	25.11459
346.384	-21.24814
346.6	4.03918
346.816	-42.31821
347.032	-44.42508
347.248	-12.81942
347.464	56.73213
347.68	-8.60492
347.896	-21.24814
348.112	50.4082
348.328	6.14661
348.544	12.46906
348.76	67.27246
348.975	-67.59898
349.191	-101.30096
349.407	12.46906
349.623	-35.99745
349.839	46.19237
350.055	-4.39031
350.27	29.32996
350.486	18.79172
350.702	29.32996
350.918	4.03918
351.133	8.25407
351.349	-54.95905
351.565	31.43768
351.781	25.11459
351.996	65.16435
352.212	12.46906
352.428	16.68414
352.644	-44.42508
352.859	-27.56942
353.075	86.24649
353.291	-33.89048
353.506	-31.78348
353.722	-4.39031
353.938	-31.78348
354.153	-67.59898
354.369	33.54542
354.584	20.89932
354.8	44.08449
355.016	-50.74553
355.231	-38.10439
355.447	-21.24814
355.662	-54.95905
355.878	37.76098
356.093	12.46906
356.309	1.93177
356.524	-35.99745
356.74	23.00695
356.955	-25.46235
357.171	4.03918
357.386	-71.81209
357.602	-69.70555
357.817	6.14661
358.033	-44.42508
358.248	-21.24814
358.464	31.43768
358.679	-29.67646
358.895	41.97663
359.11	-48.63874
359.325	86.24649
359.541	-50.74553
359.756	-52.8523
359.972	29.32996
360.187	35.65319
360.402	-0.17561
360.618	82.02988
360.833	-25.46235
361.048	-25.46235
361.264	-54.95905
361.479	52.51615
361.694	-2.28298
361.909	113.65661
362.125	79.92161
362.34	-10.71218
362.555	-6.49763
362.77	4.03918
362.986	-2.28298
363.201	79.92161
363.416	1.93177
363.631	23.00695
363.847	-42.31821
364.062	25.11459
364.277	-19.141
364.492	4.03918
364.707	25.11459
364.922	-14.92664
365.138	-10.71218
365.353	-2.28298
365.568	31.43768
365.783	-63.38577
365.998	-65.49239
366.213	105.22233
366.428	-35.99745
366.643	46.19237
366.858	12.46906
367.073	27.22227
367.288	54.62413
367.503	-0.17561
367.718	-38.10439
367.933	16.68414
368.148	-2.28298
368.363	-4.39031
368.578	-4.39031
368.793	25.11459
369.008	-27.56942
369.223	-19.141
369.438	-31.78348
369.653	20.89932
369.868	63.05626
370.083	-21.24814
370.298	-38.10439
370.513	29.32996
370.728	96.7884
370.943	-63.38577
371.157	-113.93748
371.372	27.22227
371.587	-8.60492
371.802	12.46906
372.017	-0.17561
372.232	-8.60492
372.446	-44.42508
372.661	54.62413
372.876	-29.67646
373.091	20.89932
373.306	-27.56942
373.52	-29.67646
373.735	16.68414
373.95	4.03918
374.165	79.92161
374.379	-31.78348
374.594	-10.71218
374.809	-0.17561
375.023	50.4082
375.238	16.68414
375.453	-2.28298
375.667	-4.39031
375.882	-12.81942
376.097	-35.99745
376.311	-67.59898
376.526	69.38059
376.741	-4.39031
376.955	-0.17561
377.17	-17.03383
377.384	12.46906
377.599	-12.81942
377.813	-8.60492
378.028	-71.81209
378.242	20.89932
378.457	-21.24814
378.672	-12.81942
378.886	-63.38577
379.101	4.03918
379.315	-19.141
379.53	-8.60492
379.744	-12.81942
379.958	8.25407
380.173	16.68414
380.387	-42.31821
380.602	54.62413
380.816	-10.71218
381.031	29.32996
381.245	-35.99745
381.459	4.03918
381.674	-10.71218
381.888	-31.78348
382.103	-17.03383
382.317	31.43768
382.531	-111.83146
382.746	-25.46235
382.96	48.30027
383.174	-57.06577
383.388	-33.89048
383.603	-46.53192
383.817	-42.31821
384.031	25.11459
384.246	37.76098
384.46	39.86879
384.674	-38.10439
384.888	14.57659
385.103	-0.17561
385.317	-10.71218
385.531	18.79172
385.745	-8.60492
385.959	-10.71218
386.174	44.08449
386.388	-4.39031
386.602	-27.56942
386.816	73.59693
387.03	37.76098
387.244	12.46906
387.458	4.03918
387.672	-29.67646
387.887	-12.81942
388.101	-29.67646
388.315	79.92161
388.529	8.25407
388.743	25.11459
388.957	-31.78348
389.171	16.68414
389.385	6.14661
389.599	-67.59898
389.813	29.32996
390.027	-48.63874
390.241	73.59693
390.455	1.93177
390.669	14.57659
390.883	-12.81942
391.097	-35.99745
391.311	88.35483
391.525	37.76098
391.738	67.27246
391.952	33.54542
392.166	-4.39031
392.38	8.25407
392.594	-25.46235
392.808	-2.28298
393.022	16.68414
393.236	60.94819
393.449	37.76098
393.663	8.25407
393.877	-17.03383
394.091	-38.10439
394.305	8.25407
394.518	-10.71218
394.732	-14.92664
394.946	-0.17561
395.16	-8.60492
395.373	50.4082
395.587	16.68414
395.801	46.19237
396.015	65.16435
396.228	23.00695
396.442	113.65661
396.656	37.76098
396.869	-0.17561
397.083	4.03918
397.297	33.54542
397.51	23.00695
397.724	29.32996
397.938	8.25407
398.151	12.46906
398.365	-29.67646
398.578	-25.46235
398.792	-8.60492
399.005	-10.71218
399.219	-38.10439
399.433	12.46906
399.646	25.11459
399.86	-21.24814
400.073	-10.71218
400.287	-0.17561
400.5	16.68414
400.714	41.97663
400.927	31.43768
401.141	-31.78348
401.354	67.27246
401.567	-88.66349
401.781	18.79172
401.994	16.68414
402.208	-10.71218
402.421	-97.08857
402.635	33.54542
402.848	-12.81942
403.061	-12.81942
403.275	-8.60492
403.488	-27.56942
403.701	-0.17561
403.915	37.76098
404.128	46.19237
404.341	-27.56942
404.555	-80.238
404.768	14.57659
404.981	50.4082
405.195	-19.141
405.408	1.93177
405.621	4.03918
405.834	-17.03383
406.048	37.76098
406.261	4.03918
406.474	-59.17246
406.687	4.03918
406.9	-40.21131
407.114	-38.10439
407.327	-10.71218
407.54	1.93177
407.753	31.43768
407.966	14.57659
408.179	63.05626
408.392	58.84015
408.605	10.36155
408.819	-10.71218
409.032	-38.10439
409.245	39.86879
409.458	54.62413
409.671	4.03918
409.884	-29.67646
410.097	63.05626
410.31	35.65319
410.523	-17.03383
410.736	29.32996
410.949	-12.81942
411.162	35.65319
411.375	75.70514
411.588	-2.28298
411.801	56.73213
412.014	54.62413
412.227	-10.71218
412.44	12.46906
412.653	12.46906
412.865	18.79172
413.078	6.14661
413.291	-21.24814
413.504	-10.71218
413.717	14.57659
413.93	-29.67646
414.143	-19.141
414.356	4.03918
414.568	-4.39031
414.781	63.05626
414.994	60.94819
415.207	-42.31821
415.42	4.03918
415.632	33.54542
415.845	-21.24814
416.058	-4.39031
416.271	107.33087
416.483	46.19237
416.696	4.03918
416.909	12.46906
417.121	46.19237
417.334	41.97663
417.547	92.57157
417.759	20.89932
417.972	8.25407
418.185	25.11459
418.397	-4.39031
418.61	-71.81209
418.823	-52.8523
419.035	-25.46235
419.248	54.62413
419.46	16.68414
419.673	-44.42508
419.885	6.14661
420.098	-48.63874
420.311	50.4082
420.523	63.05626
420.736	4.03918
420.948	90.46319
421.161	12.46906
421.373	46.19237
421.586	29.32996
421.798	-21.24814
422.01	48.30027
422.223	8.25407
422.435	-2.28298
422.648	-4.39031
422.86	27.22227
423.073	44.08449
423.285	-35.99745
423.497	29.32996
423.71	-8.60492
423.922	79.92161
424.134	-19.141
424.347	25.11459
424.559	41.97663
424.771	-10.71218
424.984	25.11459
425.196	67.27246
425.408	39.86879
425.621	23.00695
425.833	16.68414
426.045	67.27246
426.257	71.48875
426.47	14.57659
426.682	37.76098
426.894	58.84015
427.106	-42.31821
427.318	41.97663
427.531	73.59693
427.743	29.32996
427.955	65.16435
428.167	4.03918
428.379	71.48875
428.591	37.76098
428.804	54.62413
429.016	56.73213
429.228	16.68414
429.44	31.43768
429.652	71.48875
429.864	4.03918
430.076	16.68414
430.288	16.68414
430.5	16.68414
430.712	79.92161
430.924	46.19237
431.136	1.93177
431.348	16.68414
431.56	12.46906
431.772	31.43768
431.984	4.03918
432.196	14.57659
432.408	35.65319
432.62	58.84015
432.832	12.46906
433.044	25.11459
433.256	-23.35526
433.468	29.32996
433.679	-21.24814
433.891	31.43768
434.103	-23.35526
434.315	10.36155
434.527	37.76098
434.739	12.46906
434.95	4.03918
435.162	79.92161
435.374	67.27246
435.586	-17.03383
435.798	46.19237
436.009	-2.28298
436.221	48.30027
436.433	122.09124
436.645	48.30027
436.856	48.30027
437.068	29.32996
437.28	73.59693
437.491	27.22227
437.703	-12.81942
437.915	-4.39031
438.126	18.79172
438.338	20.89932
438.55	12.46906
438.761	67.27246
438.973	37.76098
439.184	-29.67646
439.396	-71.81209
439.608	-4.39031
439.819	20.89932
440.031	1.93177
440.242	-2.28298
440.454	111.54801
440.665	29.32996
440.877	65.16435
441.088	-4.39031
441.3	65.16435
441.511	-19.141
441.723	56.73213
441.934	48.30027
442.146	75.70514
442.357	-8.60492
442.569	20.89932
442.78	46.19237
442.991	29.32996
443.203	20.89932
443.414	105.22233
443.626	41.97663
443.837	25.11459
444.048	8.25407
444.26	27.22227
444.471	29.32996
444.682	31.43768
444.894	20.89932
445.105	20.89932
445.316	71.48875
445.528	105.22233
445.739	-29.67646
445.95	134.74384
446.161	18.79172
446.373	8.25407
446.584	-21.24814
446.795	23.00695
447.006	29.32996
447.217	73.59693
447.429	-0.17561
447.64	37.76098
447.851	65.16435
448.062	50.4082
448.273	8.25407
448.484	107.33087
448.695	31.43768
448.907	29.32996
449.118	48.30027
449.329	-21.24814
449.54	46.19237
449.751	56.73213
449.962	113.65661
450.173	37.76098
450.384	46.19237
450.595	-10.71218
450.806	46.19237
451.017	25.11459
451.228	67.27246
451.439	20.89932
451.65	132.63502
451.861	4.03918
452.072	37.76098
452.283	90.46319
452.494	48.30027
452.705	44.08449
452.915	119.98255
453.126	96.7884
453.337	79.92161
453.548	101.00532
453.759	31.43768
453.97	31.43768
454.181	-4.39031
454.391	-4.39031
454.602	63.05626
454.813	54.62413
455.024	25.11459
455.235	105.22233
455.445	54.62413
455.656	67.27246
455.867	20.89932
456.078	56.73213
456.288	29.32996
456.499	65.16435
456.71	20.89932
456.921	58.84015
457.131	96.7884
457.342	117.87389
457.553	46.19237
457.763	-44.42508
457.974	71.48875
458.184	54.62413
458.395	96.7884
458.606	101.00532
458.816	126.30869
459.027	122.09124
459.237	8.25407
459.448	122.09124
459.659	73.59693
459.869	88.35483
460.08	69.38059
460.29	124.19996
460.501	126.30869
460.711	101.00532
460.922	90.46319
461.132	27.22227
461.343	147.39721
461.553	84.13817
461.764	141.07043
461.974	176.92467
462.184	174.81543
462.395	79.92161
462.605	90.46319
462.816	39.86879
463.026	138.96154
463.236	39.86879
463.447	153.72418
463.657	145.28826
463.867	143.17933
464.078	134.74384
464.288	88.35483
464.498	141.07043
464.709	219.11374
464.919	183.25252
465.129	122.09124
465.339	117.87389
465.55	145.28826
465.76	79.92161
465.97	174.81543
466.18	179.03394
466.391	198.0182
466.601	132.63502
466.811	273.97131
467.021	225.4428
467.231	223.33309
467.441	149.50617
467.651	193.79933
467.862	229.66226
468.072	183.25252
468.282	214.89448
468.492	166.37868
468.702	242.32113
468.912	314.06758
469.122	193.79933
469.332	318.28862
469.542	240.21127
469.752	292.96345
469.962	358.39204
470.172	311.95708
470.382	368.94661
470.592	341.50562
470.802	368.94661
471.012	398.50165
471.222	373.16856
471.432	400.61285
471.642	347.8379
471.852	349.94869
472.062	392.16815
472.272	527.31334
472.482	584.34561
472.691	561.10904
472.901	476.6266
473.111	442.8402
473.321	510.41683
473.531	561.10904
473.741	489.29749
473.95	569.55852
474.16	485.0738
474.37	635.049
474.58	550.54751
474.79	728.02317
474.999	613.9217
475.209	645.61311
475.419	787.19951
475.628	789.31309
475.838	730.13647
476.048	725.90988
476.258	738.58978
476.467	909.80243
476.677	892.88998
476.886	930.94368
477.096	983.8
477.306	1047.23299
477.515	933.05785
477.725	1136.04754
477.935	943.62879
478.144	1047.23299
478.354	992.2574
478.563	1152.96554
478.773	1047.23299
478.982	1258.70837
479.192	1161.42464
479.401	1169.8838
479.611	1207.95077
479.82	1294.66261
480.03	1246.01882
480.239	1518.85609
480.449	1400.41337
480.658	1660.56045
480.868	1529.43128
481.077	1652.10074
481.287	1434.25414
481.496	1690.16909
481.705	1704.9732
481.915	1743.04018
482.124	1730.35131
482.333	1922.78278
482.543	1943.92658
482.752	1977.75541
482.961	1884.72255
483.171	1981.98391
483.38	1823.3998
483.589	2036.95199
483.799	2036.95199
484.008	2347.63481
484.217	2123.62285
484.426	2292.69789
484.636	2191.25942
484.845	2379.32616
485.054	2337.07053
485.263	2303.26319
485.472	2315.94123
485.682	2396.22728
485.891	2294.81097
486.1	2506.06794
486.309	2683.43699
486.518	2759.42521
486.727	2497.61971
486.936	2843.83614
487.146	2607.43216
487.355	2729.87626
487.564	2854.38595
487.773	2831.17591
487.982	2634.88022
488.191	3073.73898
488.4	2934.55279
488.609	3075.84735
488.818	2938.77152
489.027	2999.93636
489.236	2999.93636
489.445	3269.74825
489.654	3130.65934
489.863	3263.42759
490.072	3229.71489
490.281	3328.73363
490.49	3375.0698
490.698	3518.23656
490.907	3442.45271
491.116	3842.14928
491.325	3417.18625
491.534	3837.94556
491.743	3463.50613
491.952	3730.72415
492.16	3732.82702
492.369	3762.26514
492.578	3669.7326
492.787	3798.00629
492.996	3808.51731
493.204	3959.82092
493.413	4048.03292
493.622	4228.5432
493.831	4010.23221
494.039	4117.31682
494.248	4001.83114
494.457	4224.34706
494.665	4190.77486
494.874	4419.37682
495.083	4173.98672
495.291	4333.41896
495.5	4251.62046
495.709	4400.51115
495.917	4511.58339
496.126	4503.20273
496.335	4486.44037
496.543	4528.34364
496.752	4545.10247
496.96	4844.42474
497.169	4612.12357
497.377	4760.74472
497.586	4534.62836
497.794	4915.52407
498.003	4643.53184
498.211	4911.34249
498.42	4777.48363
498.628	5074.35591
498.837	4848.60778
499.045	5208.00531
499.254	5024.21288
499.462	5134.92759
499.671	5172.51398
499.879	5028.39198
500.087	5304.00685
500.296	5422.89653
500.504	5270.62062
500.713	5341.55919
500.921	5253.92526
501.129	5406.21486
501.338	5272.70743
501.546	5533.3746
501.754	5341.55919
501.962	5420.81141
502.171	5404.12955
502.379	5743.72501
502.587	5345.73121
502.795	5758.29484
503.004	5654.1993
503.212	5675.02313
503.42	5697.92661
503.628	5772.8635
503.837	5637.53854
504.045	5885.21149
504.253	5864.4115
504.461	6055.68247
504.669	5872.73178
504.877	5937.20115
505.085	5770.78234
505.294	6049.44852
505.502	5970.46679
505.71	6120.08757
505.918	5980.86107
506.126	6257.1329
506.334	5837.36798
506.542	6178.2405
506.75	5997.49069
506.958	6263.35981
507.166	5982.93985
507.374	6294.49118
507.582	6190.69944
507.79	6319.39249
507.998	6520.55482
508.206	6559.93216
508.414	6190.69944
508.622	6709.0759
508.83	6271.66202
509.037	6727.71048
509.245	6477.02277
509.453	6595.15743
509.661	6580.65371
509.869	6601.37296
510.077	6777.39364
510.285	6599.30114
510.492	6518.4821
510.7	6750.48357
510.908	6663.51686
511.116	6924.29609
511.324	6767.04407
511.531	6944.97738
511.739	6942.90935
511.947	6996.67074
512.155	7042.14926
512.362	7007.00772
512.57	6887.06405
512.778	6870.51412
512.985	7093.81622
513.193	7040.08229
513.401	7201.23882
513.608	7335.43294
513.816	7069.01782
514.024	7477.784
514.231	7089.68337
514.439	7327.17752
514.646	7234.27986
514.854	7387.02137
515.061	7054.55061
515.269	7281.76645
515.477	7215.69497
515.684	7533.45853
515.892	7364.32414
516.099	7527.27324
516.307	7294.15234
516.514	7519.0259
516.722	7640.63952
516.929	7823.95106
517.136	7502.53017
517.344	7753.94157
517.551	7533.45853
517.759	7766.29794
517.966	7815.7159
518.173	7935.09325
518.381	7898.05255
518.588	7788.94933
518.796	7889.82037
519.003	7692.14837
519.21	7947.43867
519.418	8072.90877
519.625	7848.65454
519.832	8173.64178
520.039	7951.55365
520.247	8159.25429
520.454	8225.01771
520.661	8434.50431
520.868	8153.08792
521.076	8457.08395
521.283	8214.74351
521.49	8432.4515
521.697	8381.12498
521.904	8393.44444
522.112	8025.60925
522.319	8280.48983
522.526	8212.68861
522.733	8522.75706
522.94	8473.50406
523.147	8576.10216
523.354	8448.87344
523.561	8613.02593
523.768	8569.94761
523.975	8922.54012
524.183	8623.28145
524.39	8852.8843
524.597	8826.24571
524.804	8850.83529
525.011	8912.29791
525.218	8877.47107
525.425	8842.63905
525.632	8826.24571
525.838	8916.39485
526.045	8953.26407
526.252	8793.45556
526.459	9295.06008
526.666	9272.56117
526.873	9333.9171
527.08	9000.36642
527.287	9127.29192
527.494	9141.61805
527.701	9403.43586
527.907	9049.50679
528.114	9548.54694
528.321	9215.28207
528.528	9554.67662
528.735	9245.96894
528.941	9505.63518
529.148	9425.92317
529.355	9558.76299
529.562	9509.72232
529.768	9554.67662
529.975	9245.96894
530.182	9603.70895
530.388	9481.11101
530.595	9818.12056
530.802	9440.23226
531.008	9930.36507
531.215	9897.71672
531.422	9842.61409
531.628	9607.79457
531.835	10219.95842
532.042	9885.47263
532.248	10103.74735
532.455	9891.59474
532.661	10150.64496
532.868	10142.48938
533.074	10150.64496
533.281	10189.38091
533.487	10124.13852
533.694	10177.14904
533.9	10533.71378
534.107	10020.12881
534.313	10342.23794
534.52	10517.42238
534.726	10497.057
534.933	10325.93679
535.139	10291.29402
535.345	10702.68993
535.552	10568.33031
535.758	10619.23042
535.965	10674.19386
536.171	10521.49531
536.377	10731.18362
536.584	10637.55256
536.79	11011.92726
536.996	10798.33808
537.203	10670.1228
537.409	10613.12281
537.615	10625.33791
537.821	10570.36646
538.028	11050.56348
538.234	10849.20412
538.44	10989.55711
538.646	10869.5485
538.853	10920.40443
539.059	10961.08405
539.265	10930.57476
539.471	11099.36147
539.677	11188.80839
539.883	11115.62608
540.09	11093.26206
540.296	11194.90629
540.502	11530.15085
540.708	11349.35563
540.914	11491.56053
541.12	11507.8095
541.326	11802.22028
541.532	11422.49555
541.738	11704.78102
541.944	11245.71854
542.15	11656.05378
542.356	11483.43581
542.562	11964.57559
542.768	11436.71572
542.974	11643.87117
543.18	11554.52194
543.386	11619.50495
543.592	11629.6577
543.798	11966.6047
544.004	11804.25005
544.21	12256.68742
544.415	12047.76251
544.621	11944.28406
544.827	11976.75012
545.033	12374.30056
545.239	12088.33672
545.445	12645.94173
545.651	12143.10703
545.856	12232.35069
546.062	12118.76535
546.268	12149.19228
546.474	12266.82741
546.679	12143.10703
546.885	12068.05
547.091	12372.27295
547.297	12100.50838
547.502	12252.63137
547.708	12201.92832
547.914	12382.41095
548.119	12356.05178
548.325	12502.02683
548.531	12370.24532
548.736	12516.21703
548.942	12256.68742
549.147	12477.70003
549.353	12587.16337
549.559	12629.72752
549.764	12735.11305
549.97	12753.35125
550.175	12654.04869
550.381	12960.01944
550.586	12589.1903
550.792	13051.17923
550.997	12840.48298
551.203	13006.61349
551.408	12522.29845
551.614	13087.64034
551.819	13115.99791
552.025	13020.79376
552.23	13036.99948
552.435	13223.34333
552.641	13350.9265
552.846	13359.02646
553.052	13030.92237
553.257	13205.11576
553.462	13348.9015
553.668	13156.50713
553.873	13201.06514
554.078	13322.57614
554.283	13300.30028
554.489	13545.30821
554.694	13415.72436
554.899	13359.02646
555.105	13312.45081
555.31	13516.96305
555.515	13413.69949
555.72	13610.09455
555.925	13373.20123
556.131	13844.91689
556.336	13496.71606
556.541	14041.24729
556.746	13433.94803
556.951	13828.72356
557.156	13616.16809
557.361	14031.12775
557.567	14039.22339
557.772	14178.86743
557.977	13875.27889
558.182	13798.36057
558.387	14081.72488
558.592	14227.43691
558.797	13966.36124
559.002	14354.92663
559.207	14095.89181
559.412	14217.31836
559.617	13990.64898
559.822	14126.24917
560.027	13871.23066
560.232	14375.16246
560.437	14227.43691
560.642	14057.43844
560.847	14021.00815
561.051	14340.76145
561.256	14000.76877
561.461	14063.51008
561.666	14079.70102
561.871	14265.88695
562.076	13984.57708
562.281	14184.93868
562.485	13869.20654
562.69	14225.4132
562.895	14255.76858
563.1	14563.34858
563.305	14369.09173
563.509	14700.94027
563.714	14389.32745
563.919	14387.30388
564.123	14417.65719
564.328	14528.94985
564.533	14535.02024
564.737	14617.98117
564.942	14848.64434
565.147	15144.04426
565.351	14767.71111
565.556	14435.86901
565.761	14433.84548
565.965	14854.71429
566.17	14767.71111
566.374	14626.07481
566.579	14791.9912
566.784	14903.2737
566.988	15210.81219
567.193	15196.64929
567.397	15026.69437
567.602	15119.76501
567.806	14822.34116
568.011	15040.85732
568.215	15299.83627
568.42	14901.2504
568.624	15180.46313
568.828	14972.06572
569.033	14828.41113
569.237	15233.06818
569.442	15030.74093
569.646	14848.64434
569.85	15095.48574
570.055	15346.37176
570.259	15241.16128
570.463	15411.11709
570.668	15263.41729
570.872	15162.25369
571.076	15447.53653
571.281	15483.95614
571.485	15388.86084
571.689	15239.138
571.893	15473.83956
572.098	15512.28263
572.302	15755.08708
572.506	15615.47308
572.71	15261.39402
572.914	15823.88411
573.119	15702.47839
573.323	15570.95933
573.527	15611.42636
573.731	15700.45499
