Data from mixed_try1_USB4F045381__28__00253.txt Node

Date: Thu Apr 03 20:26:16 EDT 2025
User: mmckonesweet
Spectrometer: USB4F04538
Trigger mode: 4
Integration Time (sec): 2.700000E-3
Scans to average: 1
Electric dark correction enabled: true
Nonlinearity correction enabled: true
Boxcar width: 0
XAxis mode: Wavelengths
Number of Pixels in Spectrum: 3648
>>>>>Begin Spectral Data<<<<<
345.52	-50.74553
345.736	-50.74553
345.952	-50.74553
346.168	20.89932
346.384	-40.21131
346.6	-10.71218
346.816	6.14661
347.032	-65.49239
347.248	35.65319
347.464	14.57659
347.68	31.43768
347.896	35.65319
348.112	-71.81209
348.328	29.32996
348.544	-35.99745
348.76	16.68414
348.975	14.57659
349.191	23.00695
349.407	31.43768
349.623	-12.81942
349.839	63.05626
350.055	18.79172
350.27	-10.71218
350.486	-4.39031
350.702	-14.92664
350.918	48.30027
351.133	46.19237
351.349	-61.27913
351.565	27.22227
351.781	35.65319
351.996	-17.03383
352.212	86.24649
352.428	-23.35526
352.644	75.70514
352.859	52.51615
353.075	20.89932
353.291	16.68414
353.506	-23.35526
353.722	-46.53192
353.938	23.00695
354.153	31.43768
354.369	-4.39031
354.584	-35.99745
354.8	77.81336
355.016	50.4082
355.231	16.68414
355.447	56.73213
355.662	35.65319
355.878	46.19237
356.093	29.32996
356.309	6.14661
356.524	-44.42508
356.74	35.65319
356.955	18.79172
357.171	-0.17561
357.386	6.14661
357.602	-6.49763
357.817	86.24649
358.033	-4.39031
358.248	27.22227
358.464	12.46906
358.679	-38.10439
358.895	12.46906
359.11	-33.89048
359.325	92.57157
359.541	-61.27913
359.756	-25.46235
359.972	-46.53192
360.187	20.89932
360.402	-57.06577
360.618	14.57659
360.833	31.43768
361.048	18.79172
361.264	23.00695
361.479	10.36155
361.694	-4.39031
361.909	54.62413
362.125	46.19237
362.34	12.46906
362.555	10.36155
362.77	44.08449
362.986	-52.8523
363.201	-31.78348
363.416	-14.92664
363.631	79.92161
363.847	-12.81942
364.062	-40.21131
364.277	60.94819
364.492	44.08449
364.707	12.46906
364.922	-46.53192
365.138	-8.60492
365.353	63.05626
365.568	35.65319
365.783	44.08449
365.998	-27.56942
366.213	-6.49763
366.428	-12.81942
366.643	14.57659
366.858	10.36155
367.073	18.79172
367.288	-73.91861
367.503	6.14661
367.718	60.94819
367.933	-0.17561
368.148	10.36155
368.363	77.81336
368.578	4.03918
368.793	-12.81942
369.008	18.79172
369.223	4.03918
369.438	35.65319
369.653	136.85268
369.868	-14.92664
370.083	31.43768
370.298	-14.92664
370.513	10.36155
370.728	-109.72541
370.943	44.08449
371.157	23.00695
371.372	29.32996
371.587	63.05626
371.802	-6.49763
372.017	44.08449
372.232	37.76098
372.446	27.22227
372.661	-0.17561
372.876	35.65319
373.091	-23.35526
373.306	39.86879
373.52	-25.46235
373.735	1.93177
373.95	48.30027
374.165	29.32996
374.379	-46.53192
374.594	14.57659
374.809	-4.39031
375.023	8.25407
375.238	63.05626
375.453	-23.35526
375.667	77.81336
375.882	-8.60492
376.097	8.25407
376.311	-10.71218
376.526	14.57659
376.741	31.43768
376.955	20.89932
377.17	-69.70555
377.384	4.03918
377.599	65.16435
377.813	44.08449
378.028	63.05626
378.242	14.57659
378.457	10.36155
378.672	86.24649
378.886	63.05626
379.101	37.76098
379.315	67.27246
379.53	54.62413
379.744	-19.141
379.958	31.43768
380.173	8.25407
380.387	14.57659
380.602	-4.39031
380.816	84.13817
381.031	20.89932
381.245	-40.21131
381.459	73.59693
381.674	20.89932
381.888	-19.141
382.103	10.36155
382.317	25.11459
382.531	-40.21131
382.746	-4.39031
382.96	-2.28298
383.174	8.25407
383.388	79.92161
383.603	39.86879
383.817	18.79172
384.031	6.14661
384.246	8.25407
384.46	1.93177
384.674	4.03918
384.888	54.62413
385.103	48.30027
385.317	29.32996
385.531	103.11382
385.745	54.62413
385.959	65.16435
386.174	46.19237
386.388	-14.92664
386.602	-23.35526
386.816	84.13817
387.03	-23.35526
387.244	-57.06577
387.458	23.00695
387.672	18.79172
387.887	-19.141
388.101	79.92161
388.315	-35.99745
388.529	23.00695
388.743	73.59693
388.957	4.03918
389.171	88.35483
389.385	54.62413
389.599	56.73213
389.813	71.48875
390.027	-29.67646
390.241	29.32996
390.455	35.65319
390.669	4.03918
390.883	18.79172
391.097	18.79172
391.311	-10.71218
391.525	44.08449
391.738	23.00695
391.952	48.30027
392.166	18.79172
392.38	50.4082
392.594	37.76098
392.808	41.97663
393.022	31.43768
393.236	52.51615
393.449	-65.49239
393.663	4.03918
393.877	-4.39031
394.091	20.89932
394.305	35.65319
394.518	27.22227
394.732	10.36155
394.946	60.94819
395.16	44.08449
395.373	10.36155
395.587	14.57659
395.801	-17.03383
396.015	46.19237
396.228	48.30027
396.442	54.62413
396.656	31.43768
396.869	63.05626
397.083	60.94819
397.297	41.97663
397.51	54.62413
397.724	-12.81942
397.938	-21.24814
398.151	27.22227
398.365	71.48875
398.578	90.46319
398.792	18.79172
399.005	69.38059
399.219	14.57659
399.433	-4.39031
399.646	-4.39031
399.86	-23.35526
400.073	27.22227
400.287	18.79172
400.5	46.19237
400.714	-14.92664
400.927	-31.78348
401.141	-31.78348
401.354	52.51615
401.567	1.93177
401.781	20.89932
401.994	-10.71218
402.208	4.03918
402.421	63.05626
402.635	-21.24814
402.848	77.81336
403.061	77.81336
403.275	35.65319
403.488	23.00695
403.701	-27.56942
403.915	10.36155
404.128	-6.49763
404.341	1.93177
404.555	27.22227
404.768	122.09124
404.981	44.08449
405.195	12.46906
405.408	44.08449
405.621	138.96154
405.834	54.62413
406.048	8.25407
406.261	-63.38577
406.474	86.24649
406.687	8.25407
406.9	18.79172
407.114	-21.24814
407.327	-21.24814
407.54	73.59693
407.753	10.36155
407.966	98.89685
408.179	105.22233
408.392	35.65319
408.605	-12.81942
408.819	41.97663
409.032	-31.78348
409.245	46.19237
409.458	23.00695
409.671	23.00695
409.884	-10.71218
410.097	23.00695
410.31	-4.39031
410.523	12.46906
410.736	-0.17561
410.949	-17.03383
411.162	-29.67646
411.375	86.24649
411.588	56.73213
411.801	84.13817
412.014	37.76098
412.227	54.62413
412.44	10.36155
412.653	98.89685
412.865	31.43768
413.078	60.94819
413.291	-6.49763
413.504	14.57659
413.717	1.93177
413.93	4.03918
414.143	50.4082
414.356	69.38059
414.568	33.54542
414.781	54.62413
414.994	-14.92664
415.207	-6.49763
415.42	63.05626
415.632	69.38059
415.845	84.13817
416.058	18.79172
416.271	12.46906
416.483	103.11382
416.696	79.92161
416.909	6.14661
417.121	6.14661
417.334	-69.70555
417.547	20.89932
417.759	56.73213
417.972	-21.24814
418.185	60.94819
418.397	37.76098
418.61	-23.35526
418.823	6.14661
419.035	54.62413
419.248	33.54542
419.46	20.89932
419.673	60.94819
419.885	35.65319
420.098	90.46319
420.311	56.73213
420.523	18.79172
420.736	90.46319
420.948	-2.28298
421.161	27.22227
421.373	35.65319
421.586	-10.71218
421.798	-8.60492
422.01	37.76098
422.223	-21.24814
422.435	18.79172
422.648	46.19237
422.86	-4.39031
423.073	52.51615
423.285	27.22227
423.497	27.22227
423.71	52.51615
423.922	39.86879
424.134	14.57659
424.347	10.36155
424.559	31.43768
424.771	71.48875
424.984	41.97663
425.196	12.46906
425.408	18.79172
425.621	94.67998
425.833	60.94819
426.045	75.70514
426.257	10.36155
426.47	35.65319
426.682	44.08449
426.894	37.76098
427.106	60.94819
427.318	35.65319
427.531	-23.35526
427.743	105.22233
427.955	86.24649
428.167	4.03918
428.379	39.86879
428.591	1.93177
428.804	73.59693
429.016	50.4082
429.228	35.65319
429.44	35.65319
429.652	-27.56942
429.864	29.32996
430.076	-4.39031
430.288	-52.8523
430.5	-8.60492
430.712	73.59693
430.924	10.36155
431.136	10.36155
431.348	23.00695
431.56	46.19237
431.772	23.00695
431.984	-23.35526
432.196	6.14661
432.408	92.57157
432.62	4.03918
432.832	10.36155
433.044	35.65319
433.256	79.92161
433.468	35.65319
433.679	71.48875
433.891	-21.24814
434.103	-12.81942
434.315	52.51615
434.527	111.54801
434.739	73.59693
434.95	10.36155
435.162	48.30027
435.374	60.94819
435.586	10.36155
435.798	79.92161
436.009	-14.92664
436.221	39.86879
436.433	1.93177
436.645	44.08449
436.856	157.94226
437.068	4.03918
437.28	35.65319
437.491	60.94819
437.703	35.65319
437.915	-6.49763
438.126	71.48875
438.338	35.65319
438.55	-59.17246
438.761	128.41744
438.973	18.79172
439.184	6.14661
439.396	-2.28298
439.608	84.13817
439.819	35.65319
440.031	54.62413
440.242	41.97663
440.454	44.08449
440.665	35.65319
440.877	-23.35526
441.088	14.57659
441.3	41.97663
441.511	-4.39031
441.723	27.22227
441.934	6.14661
442.146	77.81336
442.357	18.79172
442.569	115.76524
442.78	44.08449
442.991	90.46319
443.203	58.84015
443.414	60.94819
443.626	1.93177
443.837	41.97663
444.048	60.94819
444.26	48.30027
444.471	27.22227
444.682	65.16435
444.894	23.00695
445.105	60.94819
445.316	60.94819
445.528	14.57659
445.739	20.89932
445.95	105.22233
446.161	54.62413
446.373	63.05626
446.584	107.33087
446.795	54.62413
447.006	-4.39031
447.217	79.92161
447.429	90.46319
447.64	75.70514
447.851	63.05626
448.062	79.92161
448.273	46.19237
448.484	105.22233
448.695	27.22227
448.907	75.70514
449.118	86.24649
449.329	37.76098
449.54	77.81336
449.751	101.00532
449.962	103.11382
450.173	52.51615
450.384	103.11382
450.595	107.33087
450.806	77.81336
451.017	94.67998
451.228	60.94819
451.439	48.30027
451.65	63.05626
451.861	113.65661
452.072	29.32996
452.283	44.08449
452.494	113.65661
452.705	39.86879
452.915	31.43768
453.126	98.89685
453.337	58.84015
453.548	35.65319
453.759	52.51615
453.97	103.11382
454.181	-0.17561
454.391	27.22227
454.602	132.63502
454.813	60.94819
455.024	6.14661
455.235	107.33087
455.445	52.51615
455.656	-2.28298
455.867	79.92161
456.078	98.89685
456.288	77.81336
456.499	124.19996
456.71	52.51615
456.921	145.28826
457.131	92.57157
457.342	160.05133
457.553	27.22227
457.763	109.43943
457.974	23.00695
458.184	86.24649
458.395	82.02988
458.606	77.81336
458.816	149.50617
459.027	130.52622
459.237	124.19996
459.448	90.46319
459.659	77.81336
459.869	71.48875
460.08	111.54801
460.29	77.81336
460.501	101.00532
460.711	111.54801
460.922	162.16043
461.132	71.48875
461.343	90.46319
461.553	136.85268
461.764	124.19996
461.974	172.70621
462.184	33.54542
462.395	128.41744
462.605	136.85268
462.816	86.24649
463.026	145.28826
463.236	181.14322
463.447	117.87389
463.657	132.63502
463.867	52.51615
464.078	138.96154
464.288	187.47118
464.498	198.0182
464.709	98.89685
464.919	155.83321
465.129	174.81543
465.339	204.34665
465.55	195.90876
465.76	170.59702
465.97	170.59702
466.18	198.0182
466.391	242.32113
466.601	179.03394
466.811	200.12766
467.021	217.0041
467.231	259.20069
467.441	242.32113
467.651	309.84661
467.862	280.30186
468.072	271.86117
468.282	290.85314
468.492	318.28862
468.702	238.10143
468.912	314.06758
469.122	246.5409
469.332	303.51529
469.542	364.72473
469.752	377.39057
469.962	406.94654
470.172	417.50302
470.382	366.83566
470.592	396.39047
470.802	381.61266
471.012	305.62571
471.222	320.39917
471.432	411.16909
471.642	415.39169
471.852	476.6266
472.062	368.94661
472.272	457.62127
472.482	449.17485
472.691	529.42547
472.901	406.94654
473.111	514.64087
473.321	561.10904
473.531	554.77208
473.741	485.0738
473.95	482.96198
474.16	622.37247
474.37	605.47113
474.58	685.75944
474.79	664.62926
474.999	603.35852
475.209	668.85521
475.419	702.6644
475.628	664.62926
475.838	753.38348
476.048	789.31309
476.258	816.79058
476.467	812.56317
476.677	918.25884
476.886	1023.97359
477.096	988.02869
477.306	939.40039
477.515	956.31416
477.725	996.48615
477.935	994.37177
478.144	1019.74468
478.354	1125.47393
478.563	1087.4099
478.773	1095.86844
478.982	1218.52513
479.192	1174.11341
479.401	1237.55917
479.611	1248.13374
479.82	1396.18328
480.03	1398.29832
480.239	1430.02404
480.449	1381.378
480.658	1474.44013
480.868	1487.13043
481.077	1626.72138
481.287	1588.65175
481.496	1669.02012
481.705	1753.61414
481.915	1825.51444
482.124	1776.87652
482.333	1874.14996
482.543	1743.04018
482.752	1863.57724
482.961	1907.98179
483.171	2119.39529
483.38	1954.49825
483.589	2003.126
483.799	2051.75031
484.008	2301.15014
484.217	2060.20634
484.426	2330.73184
484.636	2157.44217
484.845	2347.63481
485.054	2277.90607
485.263	2351.86046
485.472	2370.87536
485.682	2531.41152
485.891	2324.39307
486.1	2554.64168
486.309	2459.60048
486.518	2748.87231
486.727	2660.21502
486.936	2689.76999
487.146	2573.64711
487.355	2702.43563
487.564	2744.65106
487.773	2976.73739
487.982	2810.07441
488.191	3054.76297
488.4	2985.17359
488.609	3195.99792
488.818	2793.19222
489.027	3025.24224
489.236	3151.73801
489.445	3402.44629
489.654	3198.10535
489.863	3360.32739
490.072	3164.38443
490.281	3547.70168
490.49	3343.47787
490.698	3566.64163
490.907	3364.53959
491.116	3680.24954
491.325	3524.55081
491.534	3694.97244
491.743	3499.2928
491.952	3751.75196
492.16	3711.79747
492.369	3873.67463
492.578	3606.62104
492.787	3869.47151
492.996	3739.13551
493.204	4087.92642
493.413	3999.73083
493.622	4163.49345
493.831	3999.73083
494.039	4333.41896
494.248	4037.53339
494.457	4322.93381
494.665	4364.87119
494.874	4371.16106
495.083	4373.25763
495.291	4362.77453
495.5	4436.14481
495.709	4475.96317
495.917	4293.57249
496.126	4463.38981
496.335	4591.18192
496.543	4679.12179
496.752	4507.39311
496.96	4624.68748
497.169	4557.67066
497.377	4666.56137
497.586	4710.51929
497.794	4909.25166
498.003	4643.53184
498.211	4823.50815
498.42	4670.74827
498.628	4976.14666
498.837	4925.97762
499.045	5072.26688
499.254	4980.32682
499.462	5059.73224
499.671	4967.78607
499.879	5205.91777
500.087	5345.73121
500.296	5464.59413
500.504	5320.69772
500.713	5472.93253
500.921	5349.90313
501.129	5347.81718
501.338	5297.74739
501.546	5389.53169
501.754	5285.22783
501.962	5731.23567
502.171	5577.13063
502.379	5700.00861
502.587	5539.6261
502.795	5777.02577
503.004	5545.87738
503.212	5887.29136
503.42	5606.29555
503.628	5847.76981
503.837	5781.18794
504.045	5791.59295
504.253	5724.99069
504.461	6161.62725
504.669	6078.53848
504.877	5812.4012
505.085	5999.56928
505.294	6070.22753
505.502	6039.05813
505.71	6236.37503
505.918	5989.17607
506.126	6329.76704
506.334	6003.7264
506.542	6400.29852
506.75	6093.08173
506.958	6296.56642
507.166	6178.2405
507.374	6460.43644
507.582	6153.32007
507.79	6309.01736
507.998	6362.96169
508.206	6675.94316
508.414	6588.94169
508.622	6443.84863
508.83	6551.64289
509.037	6727.71048
509.245	6495.68062
509.453	6764.97409
509.661	6535.06323
509.869	6659.37458
510.077	6568.22106
510.285	6659.37458
510.492	6777.39364
510.7	6818.78622
510.908	6452.14272
511.116	6783.60311
511.324	7079.35088
511.531	6849.82467
511.739	6731.85125
511.947	6874.65174
512.155	7064.88444
512.362	7102.08163
512.57	6750.48357
512.778	7087.61692
512.985	6994.60328
513.193	7128.94177
513.401	7031.81419
513.608	7240.47442
513.816	7279.70206
514.024	7496.34392
514.231	7104.14793
514.439	7331.30527
514.646	7124.80968
514.854	7190.91234
515.061	7236.34474
515.269	7356.06995
515.477	7246.66879
515.684	7453.03472
515.892	7376.70478
516.099	7502.53017
516.307	7382.8948
516.514	7815.7159
516.722	7611.78878
516.929	7665.36542
517.136	7545.82852
517.344	7772.47585
517.551	7543.76691
517.759	7869.23849
517.966	7821.8923
518.173	7968.01274
518.381	7819.83352
518.588	8035.89267
518.796	7854.82994
519.003	7978.299
519.21	7939.20847
519.418	7994.75596
519.625	7797.18558
519.832	8079.07748
520.039	8013.26849
520.247	8440.66262
520.454	8142.81025
520.661	8426.29295
520.868	8218.85325
521.076	8315.40937
521.283	8309.24751
521.49	8344.1624
521.697	8331.84014
521.904	8450.9261
522.112	8342.10874
522.319	8372.91161
522.526	8342.10874
522.733	8555.58632
522.94	8504.28847
523.147	8463.24164
523.354	8463.24164
523.561	8787.30689
523.768	8477.6089
523.975	8881.56861
524.183	8436.5571
524.39	8926.63688
524.597	8828.29494
524.804	8713.51004
525.011	8986.03191
525.218	8957.3603
525.425	8807.80183
525.632	8699.15788
525.838	9069.97898
526.045	8838.54083
526.252	9041.31742
526.459	9333.9171
526.666	9041.31742
526.873	9080.21443
527.08	9155.94334
527.287	9309.37652
527.494	9178.45281
527.701	9528.11364
527.907	9258.24263
528.114	9513.80939
528.321	9307.33136
528.528	9648.64733
528.735	9728.29241
528.941	9732.37615
529.148	9456.58454
529.355	9568.97865
529.562	9358.4553
529.768	9703.78872
529.975	9423.87895
530.182	9709.91485
530.388	9801.79034
530.595	9724.20862
530.802	9579.19392
531.008	10101.70816
531.215	9756.87727
531.422	10118.02132
531.628	9960.96949
531.835	10052.76327
532.042	9987.49068
532.248	10254.60921
532.455	9740.54343
532.661	10138.41151
532.868	10154.72266
533.074	10340.20034
533.281	9912.00083
533.487	10150.64496
533.694	10128.21659
533.9	10437.99015
534.107	10254.60921
534.313	10499.0936
534.52	10376.87506
534.726	10592.76333
534.933	10395.21082
535.139	10490.94714
535.345	10704.72527
535.552	10639.58829
535.758	10820.72004
535.965	10767.81493
536.171	10556.11313
536.377	10747.46468
536.584	10735.25396
536.79	10743.39449
536.996	10857.34201
537.203	10670.1228
537.409	10900.06292
537.615	10865.47972
537.821	10721.00757
538.028	11223.36195
538.234	10723.04281
538.44	10987.52339
538.646	10841.06604
538.853	11036.32954
539.059	10733.2188
539.265	11052.59685
539.471	10857.34201
539.677	11154.25179
539.883	11207.10182
540.09	11426.5585
540.296	11331.06864
540.502	11666.20572
540.708	11253.84789
540.914	11666.20572
541.12	11564.67616
541.326	11385.92719
541.532	11704.78102
541.738	11625.59663
541.944	11394.05377
542.15	11769.74275
542.356	11645.90162
542.562	11875.28675
542.768	11635.74924
542.974	11966.6047
543.18	11743.35313
543.386	11867.16879
543.592	11643.87117
543.798	11995.01138
544.004	12041.67611
544.21	11990.95338
544.415	11956.45907
544.621	11901.6692
544.827	12005.15624
545.033	12293.19057
545.239	12374.30056
545.445	12250.60333
545.651	12303.32993
545.856	12575.00169
546.062	12183.6741
546.268	12214.09746
546.474	11990.95338
546.679	12100.50838
546.885	11946.31325
547.091	12053.84884
547.297	12100.50838
547.502	12429.04362
547.708	12173.53262
547.914	12416.87892
548.119	12437.15328
548.325	12548.6506
548.531	12351.99642
548.736	12451.34494
548.942	12455.39964
549.147	12597.29794
549.353	12427.01618
549.559	12767.53619
549.764	12844.53537
549.97	13032.94808
550.175	12735.11305
550.381	12729.03355
550.586	12860.7447
550.792	13215.24223
550.997	12915.44867
551.203	12917.47467
551.408	12757.40412
551.614	12931.65652
551.819	13028.89666
552.025	13273.9736
552.23	13081.5636
552.435	13344.85149
552.641	13251.69662
552.846	13150.43087
553.052	13188.91317
553.257	13235.49485
553.462	13284.09933
553.668	13328.65128
553.873	13397.50038
554.078	13753.82697
554.283	13369.15132
554.489	13490.64189
554.694	13367.12635
554.899	13601.99645
555.105	13308.40065
555.31	13798.36057
555.515	13533.16037
555.72	13786.21518
555.925	13583.77553
556.131	13830.74773
556.336	13440.02251
556.541	13755.85126
556.746	13693.09695
556.951	13646.53531
557.156	13589.8492
557.361	13893.4958
557.567	14081.72488
557.772	14235.53171
557.977	13940.04911
558.182	13940.04911
558.387	13931.95298
558.592	14041.24729
558.797	14037.19949
559.002	14377.18604
559.207	13958.26525
559.412	14330.64341
559.617	14071.60557
559.822	14209.22349
560.027	13759.89982
560.232	14008.86455
560.437	13820.62682
560.642	14225.4132
560.847	14182.91493
561.051	14168.74864
561.256	14338.73785
561.461	13950.16921
561.666	14039.22339
561.871	13990.64898
562.076	14223.38949
562.281	14373.13889
562.485	14340.76145
562.69	14415.63365
562.895	14097.91565
563.1	14644.28546
563.305	14164.70112
563.509	14749.50097
563.714	14211.24721
563.919	14725.22068
564.123	14547.16099
564.328	14535.02024
564.533	14565.37203
564.737	14763.66442
564.942	14702.96364
565.147	14933.62319
565.351	14883.04065
565.556	14654.40244
565.761	14387.30388
565.965	14868.87748
566.17	14571.44235
566.374	14970.04243
566.579	14522.87945
566.784	14834.4811
566.988	14749.50097
567.193	15320.06908
567.397	15123.81155
567.602	15097.50901
567.806	14713.08049
568.011	15194.62602
568.215	15295.78972
568.42	15245.20782
568.624	15186.53294
568.828	15030.74093
569.033	14988.25201
569.237	15560.84261
569.442	15305.90611
569.646	14913.39021
569.85	14891.13388
570.055	15299.83627
570.259	15447.53653
570.463	15202.71911
570.668	15204.74238
570.872	15318.04579
571.076	15176.41659
571.281	15239.138
571.485	15364.58135
571.689	15581.07606
571.893	15508.23598
572.098	15619.51981
572.302	15664.03399
572.506	15866.37704
572.71	15552.74925
572.914	15823.88411
573.119	15641.77685
573.323	15556.79593
573.527	15376.72109
573.731	16046.47235
573.935	15759.13393
