Data from mixed_try1_USB4F045381__10__00235.txt Node

Date: Thu Apr 03 20:23:53 EDT 2025
User: mmckonesweet
Spectrometer: USB4F04538
Trigger mode: 4
Integration Time (sec): 2.700000E-3
Scans to average: 1
Electric dark correction enabled: true
Nonlinearity correction enabled: true
Boxcar width: 0
XAxis mode: Wavelengths
Number of Pixels in Spectrum: 3648
>>>>>Begin Spectral Data<<<<<
345.52	8.95656
345.736	8.95656
345.952	8.95656
346.168	74.29967
346.384	36.35578
346.6	4.74166
346.816	-47.93647
347.032	23.70949
347.248	4.74166
347.464	-5.79519
347.68	-16.33143
347.896	70.08331
348.112	4.74166
348.328	-5.79519
348.544	-47.93647
348.76	-20.54576
348.975	36.35578
349.191	15.2791
349.407	-5.79519
349.623	15.2791
349.839	-56.36353
350.055	-5.79519
350.27	78.51611
350.486	93.27437
350.702	-39.50901
350.918	19.49425
351.133	44.78711
351.349	-28.97412
351.565	4.74166
351.781	-12.11701
351.996	13.17157
352.212	42.67924
352.428	-71.10991
352.644	-5.79519
352.859	122.79415
353.075	-20.54576
353.291	27.92483
353.506	-43.72279
353.722	38.46358
353.938	8.95656
354.153	13.17157
354.369	0.52684
354.584	-31.08114
354.8	36.35578
355.016	-47.93647
355.231	-26.86706
355.447	103.81665
355.662	11.06405
355.878	82.73264
356.093	-37.40208
356.309	-35.29512
356.524	-14.22423
356.74	-115.34148
356.955	53.21881
357.171	11.06405
357.386	6.8491
357.602	4.74166
357.817	-47.93647
358.033	6.8491
358.248	-39.50901
358.464	13.17157
358.679	23.70949
358.895	27.92483
359.11	6.8491
359.325	-92.17399
359.541	8.95656
359.756	-1.58052
359.972	55.32679
360.187	-56.36353
360.402	2.63424
360.618	55.32679
360.833	-45.82964
361.048	-35.29512
361.264	-5.79519
361.479	-31.08114
361.694	-3.68787
361.909	19.49425
362.125	13.17157
362.34	32.14026
362.555	49.00291
362.77	-98.49271
362.986	-16.33143
363.201	-14.22423
363.416	6.8491
363.631	4.74166
363.847	-37.40208
364.062	-10.00976
364.277	6.8491
364.492	-14.22423
364.707	2.63424
364.922	13.17157
365.138	27.92483
365.353	25.81715
365.568	23.70949
365.783	-102.70506
365.998	40.5714
366.213	15.2791
366.428	32.14026
366.643	11.06405
366.858	-35.29512
367.073	-5.79519
367.288	8.95656
367.503	-5.79519
367.718	0.52684
367.933	74.29967
368.148	65.86705
368.363	38.46358
368.578	-14.22423
368.793	61.65088
369.008	23.70949
369.223	2.63424
369.438	36.35578
369.653	32.14026
369.868	-12.11701
370.083	70.08331
370.298	30.03253
370.513	53.21881
370.728	-14.22423
370.943	-16.33143
371.157	-1.58052
371.372	-5.79519
371.587	42.67924
371.802	-1.58052
372.017	21.60186
372.232	11.06405
372.446	13.17157
372.661	-47.93647
372.876	95.38278
373.091	13.17157
373.306	-5.79519
373.52	27.92483
373.735	23.70949
373.95	-24.75999
374.165	-3.68787
374.379	4.74166
374.594	-14.22423
374.809	19.49425
375.023	30.03253
375.238	38.46358
375.453	36.35578
375.667	-5.79519
375.882	78.51611
376.097	-14.22423
376.311	40.5714
376.526	-10.00976
376.741	-58.47023
376.955	61.65088
377.17	74.29967
377.384	19.49425
377.599	-41.61591
377.813	44.78711
378.028	-60.57691
378.242	13.17157
378.457	-20.54576
378.672	36.35578
378.886	55.32679
379.101	42.67924
379.315	-37.40208
379.53	-33.18815
379.744	53.21881
379.958	-5.79519
380.173	-14.22423
380.387	101.70815
380.602	59.54283
380.816	15.2791
381.031	65.86705
381.245	-18.43861
381.459	32.14026
381.674	-14.22423
381.888	-22.65289
382.103	-10.00976
382.317	-10.00976
382.531	-7.90249
382.746	-31.08114
382.96	-20.54576
383.174	-43.72279
383.388	-14.22423
383.603	8.95656
383.817	74.29967
384.031	82.73264
384.246	4.74166
384.46	63.75895
384.674	21.60186
384.888	6.8491
385.103	36.35578
385.317	97.49122
385.531	27.92483
385.745	49.00291
385.959	-37.40208
386.174	-31.08114
386.388	70.08331
386.602	44.78711
386.816	6.8491
387.03	-1.58052
387.244	-45.82964
387.458	44.78711
387.672	-3.68787
387.887	-14.22423
388.101	55.32679
388.315	-37.40208
388.529	6.8491
388.743	-31.08114
388.957	46.895
389.171	34.24801
389.385	-47.93647
389.599	44.78711
389.813	32.14026
390.027	-26.86706
390.241	44.78711
390.455	-1.58052
390.669	53.21881
390.883	6.8491
391.097	53.21881
391.311	49.00291
391.525	-22.65289
391.738	-35.29512
391.952	57.4348
392.166	-14.22423
392.38	-18.43861
392.594	17.38667
392.808	78.51611
393.022	25.81715
393.236	-45.82964
393.449	-14.22423
393.663	11.06405
393.877	19.49425
394.091	38.46358
394.305	-37.40208
394.518	36.35578
394.732	15.2791
394.946	-1.58052
395.16	13.17157
395.373	36.35578
395.587	27.92483
395.801	-24.75999
396.015	63.75895
396.228	11.06405
396.442	57.4348
396.656	-39.50901
396.869	2.63424
397.083	11.06405
397.297	13.17157
397.51	-41.61591
397.724	21.60186
397.938	-43.72279
398.151	4.74166
398.365	-14.22423
398.578	74.29967
398.792	30.03253
399.005	80.62436
399.219	19.49425
399.433	-5.79519
399.646	19.49425
399.86	11.06405
400.073	-60.57691
400.287	11.06405
400.5	15.2791
400.714	-3.68787
400.927	2.63424
401.141	76.40788
401.354	-14.22423
401.567	-22.65289
401.781	-10.00976
401.994	34.24801
402.208	27.92483
402.421	-39.50901
402.635	27.92483
402.848	65.86705
403.061	21.60186
403.275	2.63424
403.488	53.21881
403.701	23.70949
403.915	15.2791
404.128	23.70949
404.341	27.92483
404.555	46.895
404.768	27.92483
404.981	-12.11701
405.195	23.70949
405.408	57.4348
405.621	-7.90249
405.834	53.21881
406.048	11.06405
406.261	-62.68356
406.474	19.49425
406.687	11.06405
406.9	-14.22423
407.114	49.00291
407.327	21.60186
407.54	-24.75999
407.753	-31.08114
407.966	-50.04327
408.179	11.06405
408.392	-14.22423
408.605	70.08331
408.819	91.16598
409.032	-47.93647
409.245	-5.79519
409.458	-26.86706
409.671	63.75895
409.884	-64.79019
410.097	4.74166
410.31	-22.65289
410.523	2.63424
410.736	-3.68787
410.949	11.06405
411.162	44.78711
411.375	19.49425
411.588	34.24801
411.801	6.8491
412.014	-12.11701
412.227	53.21881
412.44	38.46358
412.653	44.78711
412.865	133.33796
413.078	-56.36353
413.291	-31.08114
413.504	-24.75999
413.717	30.03253
413.93	82.73264
414.143	6.8491
414.356	11.06405
414.568	27.92483
414.781	32.14026
414.994	-45.82964
415.207	-5.79519
415.42	11.06405
415.632	-1.58052
415.845	95.38278
416.058	27.92483
416.271	65.86705
416.483	4.74166
416.696	21.60186
416.909	57.4348
417.121	-73.21644
417.334	-60.57691
417.547	36.35578
417.759	15.2791
417.972	6.8491
418.185	2.63424
418.397	-45.82964
418.61	27.92483
418.823	-56.36353
419.035	70.08331
419.248	-5.79519
419.46	-50.04327
419.673	4.74166
419.885	-39.50901
420.098	70.08331
420.311	21.60186
420.523	38.46358
420.736	6.8491
420.948	19.49425
421.161	-5.79519
421.373	-43.72279
421.586	-47.93647
421.798	78.51611
422.01	74.29967
422.223	133.33796
422.435	-20.54576
422.648	-43.72279
422.86	11.06405
423.073	30.03253
423.285	46.895
423.497	53.21881
423.71	38.46358
423.922	-64.79019
424.134	46.895
424.347	-33.18815
424.559	-31.08114
424.771	21.60186
424.984	6.8491
425.196	36.35578
425.408	6.8491
425.621	19.49425
425.833	72.19148
426.045	-28.97412
426.257	15.2791
426.47	-85.85504
426.682	-14.22423
426.894	59.54283
427.106	61.65088
427.318	51.11085
427.531	-1.58052
427.743	36.35578
427.955	27.92483
428.167	13.17157
428.379	36.35578
428.591	30.03253
428.804	13.17157
429.016	-28.97412
429.228	11.06405
429.44	46.895
429.652	27.92483
429.864	2.63424
430.076	19.49425
430.288	2.63424
430.5	49.00291
430.712	44.78711
430.924	6.8491
431.136	15.2791
431.348	-12.11701
431.56	-18.43861
431.772	-10.00976
431.984	55.32679
432.196	-22.65289
432.408	-47.93647
432.62	-3.68787
432.832	44.78711
433.044	44.78711
433.256	-5.79519
433.468	6.8491
433.679	-20.54576
433.891	51.11085
434.103	44.78711
434.315	55.32679
434.527	-12.11701
434.739	-22.65289
434.95	53.21881
435.162	19.49425
435.374	19.49425
435.586	15.2791
435.798	27.92483
436.009	-7.90249
436.221	-37.40208
436.433	78.51611
436.645	27.92483
436.856	11.06405
437.068	25.81715
437.28	78.51611
437.491	-39.50901
437.703	78.51611
437.915	-12.11701
438.126	30.03253
438.338	2.63424
438.55	6.8491
438.761	55.32679
438.973	-3.68787
439.184	23.70949
439.396	8.95656
439.608	13.17157
439.819	30.03253
440.031	2.63424
440.242	38.46358
440.454	38.46358
440.665	19.49425
440.877	-52.15005
441.088	30.03253
441.3	-20.54576
441.511	-1.58052
441.723	70.08331
441.934	2.63424
442.146	38.46358
442.357	44.78711
442.569	27.92483
442.78	-39.50901
442.991	-54.2568
443.203	-20.54576
443.414	-14.22423
443.626	2.63424
443.837	19.49425
444.048	6.8491
444.26	-3.68787
444.471	55.32679
444.682	44.78711
444.894	2.63424
445.105	44.78711
445.316	32.14026
445.528	30.03253
445.739	44.78711
445.95	44.78711
446.161	-26.86706
446.373	108.03372
446.584	23.70949
446.795	-52.15005
447.006	32.14026
447.217	30.03253
447.429	78.51611
447.64	27.92483
447.851	-5.79519
448.062	46.895
448.273	-24.75999
448.484	11.06405
448.695	44.78711
448.907	89.05761
449.118	-10.00976
449.329	49.00291
449.54	-41.61591
449.751	57.4348
449.962	-3.68787
450.173	11.06405
450.384	89.05761
450.595	-7.90249
450.806	103.81665
451.017	36.35578
451.228	-37.40208
451.439	42.67924
451.65	19.49425
451.861	82.73264
452.072	15.2791
452.283	-1.58052
452.494	63.75895
452.705	-18.43861
452.915	13.17157
453.126	70.08331
453.337	4.74166
453.548	40.5714
453.759	-69.00336
453.97	65.86705
454.181	2.63424
454.391	15.2791
454.602	23.70949
454.813	44.78711
455.024	95.38278
455.235	46.895
455.445	70.08331
455.656	42.67924
455.867	-1.58052
456.078	27.92483
456.288	-35.29512
456.499	38.46358
456.71	-56.36353
456.921	86.94927
457.131	27.92483
457.342	15.2791
457.553	2.63424
457.763	63.75895
457.974	63.75895
458.184	6.8491
458.395	21.60186
458.606	-10.00976
458.816	-3.68787
459.027	53.21881
459.237	2.63424
459.448	11.06405
459.659	-73.21644
459.869	-3.68787
460.08	17.38667
460.29	13.17157
460.501	-45.82964
460.711	-5.79519
460.922	27.92483
461.132	11.06405
461.343	15.2791
461.553	6.8491
461.764	36.35578
461.974	-47.93647
462.184	42.67924
462.395	34.24801
462.605	21.60186
462.816	36.35578
463.026	17.38667
463.236	-28.97412
463.447	-10.00976
463.657	32.14026
463.867	72.19148
464.078	-12.11701
464.288	-22.65289
464.498	38.46358
464.709	-16.33143
464.919	-31.08114
465.129	23.70949
465.339	23.70949
465.55	36.35578
465.76	36.35578
465.97	-14.22423
466.18	36.35578
466.391	46.895
466.601	15.2791
466.811	-5.79519
467.021	27.92483
467.231	42.67924
467.441	55.32679
467.651	-10.00976
467.862	2.63424
468.072	61.65088
468.282	-12.11701
468.492	-5.79519
468.702	-14.22423
468.912	78.51611
469.122	-5.79519
469.332	42.67924
469.542	19.49425
469.752	19.49425
469.962	-22.65289
470.172	38.46358
470.382	27.92483
470.592	-54.2568
470.802	15.2791
471.012	-37.40208
471.222	-31.08114
471.432	27.92483
471.642	4.74166
471.852	-16.33143
472.062	36.35578
472.272	86.94927
472.482	-14.22423
472.691	-18.43861
472.901	30.03253
473.111	11.06405
473.321	2.63424
473.531	6.8491
473.741	-39.50901
473.95	19.49425
474.16	78.51611
474.37	11.06405
474.58	44.78711
474.79	27.92483
474.999	27.92483
475.209	-1.58052
475.419	8.95656
475.628	-7.90249
475.838	61.65088
476.048	-26.86706
476.258	27.92483
476.467	74.29967
476.677	6.8491
476.886	38.46358
477.096	15.2791
477.306	-7.90249
477.515	32.14026
477.725	-1.58052
477.935	-52.15005
478.144	32.14026
478.354	55.32679
478.563	27.92483
478.773	36.35578
478.982	97.49122
479.192	32.14026
479.401	-14.22423
479.611	72.19148
479.82	46.895
480.03	36.35578
480.239	15.2791
480.449	11.06405
480.658	-28.97412
480.868	36.35578
481.077	-73.21644
481.287	51.11085
481.496	11.06405
481.705	11.06405
481.915	65.86705
482.124	86.94927
482.333	36.35578
482.543	11.06405
482.752	-26.86706
482.961	55.32679
483.171	2.63424
483.38	53.21881
483.589	78.51611
483.799	32.14026
484.008	55.32679
484.217	86.94927
484.426	65.86705
484.636	2.63424
484.845	30.03253
485.054	72.19148
485.263	17.38667
485.472	-3.68787
485.682	82.73264
485.891	72.19148
486.1	74.29967
486.309	61.65088
486.518	-39.50901
486.727	46.895
486.936	13.17157
487.146	-64.79019
487.355	19.49425
487.564	0.52684
487.773	27.92483
487.982	27.92483
488.191	21.60186
488.4	57.4348
488.609	55.32679
488.818	44.78711
489.027	-20.54576
489.236	36.35578
489.445	11.06405
489.654	61.65088
489.863	32.14026
490.072	42.67924
490.281	70.08331
490.49	72.19148
490.698	19.49425
490.907	36.35578
491.116	38.46358
491.325	80.62436
491.534	53.21881
491.743	78.51611
491.952	44.78711
492.16	49.00291
492.369	78.51611
492.578	70.08331
492.787	23.70949
492.996	53.21881
493.204	-12.11701
493.413	21.60186
493.622	38.46358
493.831	86.94927
494.039	17.38667
494.248	82.73264
494.457	74.29967
494.665	61.65088
494.874	44.78711
495.083	27.92483
495.291	95.38278
495.5	74.29967
495.709	38.46358
495.917	-10.00976
496.126	42.67924
496.335	-3.68787
496.543	51.11085
496.752	30.03253
496.96	61.65088
497.169	42.67924
497.377	114.35949
497.586	86.94927
497.794	-3.68787
498.003	46.895
498.211	61.65088
498.42	44.78711
498.628	-43.72279
498.837	116.46812
499.045	36.35578
499.254	-5.79519
499.462	49.00291
499.671	2.63424
499.879	46.895
500.087	61.65088
500.296	70.08331
500.504	13.17157
500.713	44.78711
500.921	120.68545
501.129	4.74166
501.338	129.12037
501.546	42.67924
501.754	101.70815
501.962	143.8823
502.171	97.49122
502.379	32.14026
502.587	137.55563
502.795	-12.11701
503.004	27.92483
503.212	72.19148
503.42	63.75895
503.628	51.11085
503.837	78.51611
504.045	44.78711
504.253	95.38278
504.461	103.81665
504.669	103.81665
504.877	30.03253
505.085	91.16598
505.294	32.14026
505.502	84.84094
505.71	95.38278
505.918	99.59967
506.126	112.25088
506.334	91.16598
506.542	78.51611
506.75	129.12037
506.958	139.6645
507.166	76.40788
507.374	63.75895
507.582	61.65088
507.79	103.81665
507.998	108.03372
508.206	67.97517
508.414	70.08331
508.622	154.42718
508.83	72.19148
509.037	145.99124
509.245	95.38278
509.453	30.03253
509.661	70.08331
509.869	89.05761
510.077	122.79415
510.285	63.75895
510.492	116.46812
510.7	103.81665
510.908	105.92518
511.116	97.49122
511.324	38.46358
511.531	145.99124
511.739	108.03372
511.947	86.94927
512.155	80.62436
512.362	70.08331
512.57	114.35949
512.778	57.4348
512.985	154.42718
513.193	93.27437
513.401	124.90287
513.608	164.97259
513.816	86.94927
514.024	110.14229
514.231	112.25088
514.439	55.32679
514.646	82.73264
514.854	46.895
515.061	120.68545
515.269	63.75895
515.477	158.64528
515.684	108.03372
515.892	122.79415
516.099	114.35949
516.307	116.46812
516.514	156.53622
516.722	114.35949
516.929	110.14229
517.136	139.6645
517.344	61.65088
517.551	143.8823
517.759	61.65088
517.966	116.46812
518.173	162.86346
518.381	169.1909
518.588	211.37848
518.796	53.21881
519.003	114.35949
519.21	124.90287
519.418	49.00291
519.625	72.19148
519.832	122.79415
520.039	137.55563
520.247	238.8047
520.454	112.25088
520.661	84.84094
520.868	120.68545
521.076	200.83082
521.283	141.77339
521.49	200.83082
521.697	173.40929
521.904	139.6645
522.112	108.03372
522.319	131.22915
522.526	114.35949
522.733	162.86346
522.94	196.6119
523.147	108.03372
523.354	129.12037
523.561	207.15936
523.768	211.37848
523.975	120.68545
524.183	97.49122
524.39	177.62776
524.597	209.26891
524.804	230.36551
525.011	145.99124
525.218	135.44678
525.425	145.99124
525.632	179.73703
525.838	171.30008
526.045	141.77339
526.252	268.3443
526.459	207.15936
526.666	162.86346
526.873	179.73703
527.08	200.83082
527.287	122.79415
527.494	112.25088
527.701	221.92663
527.907	188.1743
528.114	145.99124
528.321	240.91455
528.528	162.86346
528.735	171.30008
528.941	175.51851
529.148	209.26891
529.355	162.86346
529.562	247.24421
529.768	196.6119
529.975	224.03632
530.182	272.56455
530.388	173.40929
530.595	236.69488
530.802	148.10019
531.008	289.44628
531.215	230.36551
531.422	139.6645
531.628	281.00526
531.835	299.99796
532.042	158.64528
532.248	293.6669
532.455	196.6119
532.661	196.6119
532.868	202.94032
533.074	224.03632
533.281	268.3443
533.487	200.83082
533.694	291.55658
533.9	238.8047
534.107	120.68545
534.313	297.88759
534.52	257.79401
534.726	323.21326
534.933	188.1743
535.139	238.8047
535.345	283.11549
535.552	314.77108
535.758	331.65572
535.965	270.45441
536.171	382.31634
536.377	367.53931
536.584	333.76638
536.79	221.92663
536.996	281.00526
537.203	306.32919
537.409	213.48807
537.615	359.09566
537.821	289.44628
538.028	335.87706
538.234	392.87187
538.44	272.56455
538.646	321.10269
538.853	375.98323
539.059	314.77108
539.265	384.42741
539.471	333.76638
539.677	373.87222
539.883	255.68401
540.09	299.99796
540.296	333.76638
540.502	335.87706
540.708	299.99796
540.914	365.42837
541.12	350.65229
541.326	367.53931
541.532	348.54149
541.738	443.54405
541.944	346.43071
542.15	380.20529
542.356	356.9848
542.562	418.2068
542.768	344.31995
542.974	335.87706
543.18	397.09419
543.386	424.5409
543.592	502.6729
543.798	407.65029
544.004	348.54149
544.21	464.66014
544.415	418.2068
544.621	466.77183
544.827	333.76638
545.033	394.98302
545.239	390.76073
545.445	525.90526
545.651	492.11332
545.856	492.11332
546.062	454.1019
546.268	432.98659
546.474	384.42741
546.679	509.00883
546.885	494.22521
547.091	492.11332
547.297	500.56096
547.502	509.00883
547.708	458.32515
547.914	475.21875
548.119	458.32515
548.325	424.5409
548.531	460.4368
548.736	555.47618
548.942	513.23285
549.147	470.99526
549.353	553.36388
549.559	652.65602
549.764	504.78487
549.97	509.00883
550.175	523.79316
550.381	642.09171
550.586	456.21352
550.792	644.20454
550.997	572.37505
551.203	595.61239
551.408	568.15026
551.614	635.75326
551.819	566.03788
552.025	766.76868
552.23	500.56096
552.435	661.10768
552.641	610.4006
552.846	686.4638
553.052	623.07671
553.257	646.31739
553.462	551.2516
553.668	663.22063
553.873	612.51326
554.078	616.7386
554.283	703.36879
554.489	682.23766
554.694	557.58849
554.899	798.47207
555.105	656.88183
555.31	735.06755
555.515	661.10768
555.72	671.67253
555.925	563.92551
556.131	699.14248
556.336	597.72496
556.541	821.7226
556.746	631.5277
556.951	770.99567
557.156	741.40759
557.361	872.4548
557.567	739.29423
557.772	745.63433
557.977	724.50103
558.182	749.86112
558.387	737.18088
558.592	764.6552
558.797	627.30218
559.002	745.63433
559.207	697.02933
559.412	878.79667
559.617	732.95422
559.822	918.96355
560.027	711.82155
560.232	787.90403
560.437	804.81301
560.642	751.97453
560.847	796.35845
561.051	796.35845
561.256	775.2227
561.461	785.79045
561.666	790.01762
561.871	923.1918
562.076	773.10918
562.281	859.77128
562.485	817.49515
562.69	796.35845
562.895	707.59515
563.1	933.76257
563.305	893.59466
563.509	967.59026
563.714	863.99908
563.919	927.42009
564.123	925.30594
564.328	973.93315
564.533	815.38144
564.737	935.87675
564.942	999.30532
565.147	1088.11478
565.351	1016.22061
565.556	1069.08335
565.761	925.30594
565.965	978.16178
566.17	832.29139
566.374	1170.58874
566.579	1001.41971
566.784	963.3617
566.988	908.39304
567.193	1007.76292
567.397	857.65739
567.602	1162.12957
567.806	880.91064
568.011	1071.19793
568.215	1009.87733
568.42	1160.01479
568.624	1018.33505
568.828	1189.62209
569.033	1102.91728
569.237	1109.26129
569.442	973.93315
569.646	1028.90734
569.85	1024.67841
570.055	1267.87311
570.259	1071.19793
570.463	1140.98193
570.668	1066.96877
570.872	1153.67046
571.076	1016.22061
571.281	1086.00015
571.485	1111.37596
571.689	1212.88546
571.893	1081.77092
572.098	1185.39243
572.302	1077.54171
572.506	1187.50725
572.71	1090.22941
572.914	1210.77059
573.119	1149.44094
573.323	1195.9666
573.527	1134.63772
573.731	1282.67779
573.935	1244.60887
574.139	1293.25263
574.343	1200.1963
574.547	1157.90001
574.751	1289.02269
574.955	1358.81767
575.159	1176.93315
575.364	1227.68963
575.568	1280.56283
575.772	1274.21796
575.976	1238.26414
576.18	1179.04797
576.383	1295.3676
576.587	1305.9425
576.791	1248.83871
576.995	1363.04772
577.199	1310.17248
577.403	1195.9666
577.607	1189.62209
577.811	1365.16275
578.015	1320.74745
578.219	1447.64947
578.422	1329.20745
578.626	1458.22473
578.83	1354.58762
579.034	1430.72906
579.238	1295.3676
579.442	1396.8883
579.645	1468.79999
579.849	1591.47174
580.053	1616.85154
580.257	1602.04669
580.46	1426.49895
580.664	1676.06981
580.868	1373.62287
581.071	1532.25132
581.275	1363.04772
581.479	1701.44843
581.682	1508.9859
581.886	1549.17155
582.09	1443.41937
582.293	1629.54132
582.497	1396.8883
582.7	1625.3114
582.904	1494.18059
583.107	1692.98893
583.311	1443.41937
583.515	1542.82647
583.718	1439.18926
