Data from mixed_try1_USB4F045381__9__00234.txt Node

Date: Thu Apr 03 20:23:53 EDT 2025
User: mmckonesweet
Spectrometer: USB4F04538
Trigger mode: 4
Integration Time (sec): 2.700000E-3
Scans to average: 1
Electric dark correction enabled: true
Nonlinearity correction enabled: true
Boxcar width: 0
XAxis mode: Wavelengths
Number of Pixels in Spectrum: 3648
>>>>>Begin Spectral Data<<<<<
345.52	-5.44397
345.736	-5.44397
345.952	-5.44397
346.168	-13.87303
346.384	70.43467
346.6	-64.43909
346.816	-28.62294
347.032	-5.44397
347.248	-5.44397
347.464	53.57014
347.68	-34.94396
347.896	43.03055
348.112	2.98547
348.328	-7.55127
348.544	11.4153
348.76	28.27611
348.975	7.20034
349.191	-81.29121
349.407	2.98547
349.623	5.09289
349.839	-22.3017
350.055	-3.33665
350.27	21.95313
350.486	2.98547
350.702	55.67812
350.918	-47.58533
351.133	-37.05092
351.349	15.63036
351.565	36.70708
351.781	34.5993
351.996	62.00222
352.212	13.52282
352.428	30.38382
352.644	43.03055
352.859	-28.62294
353.075	-5.44397
353.291	-13.87303
353.506	19.84552
353.722	-13.87303
353.938	-28.62294
354.153	-70.75882
354.369	-22.3017
354.584	32.49155
354.8	-68.65227
355.016	-13.87303
355.231	-72.86535
355.447	-1.2293
355.662	-114.99048
355.878	-22.3017
356.093	-28.62294
356.309	-47.58533
356.524	2.98547
356.74	-60.2258
356.955	30.38382
357.171	19.84552
357.386	-22.3017
357.602	-15.98024
357.817	-5.44397
358.033	-13.87303
358.248	-47.58533
358.464	-39.15785
358.679	-39.15785
358.895	28.27611
359.11	-43.37164
359.325	70.43467
359.541	30.38382
359.756	53.57014
359.972	-1.2293
360.187	-34.94396
360.402	-30.72997
360.618	-81.29121
360.833	11.4153
361.048	-13.87303
361.264	-18.08741
361.479	-60.2258
361.694	0.87808
361.909	15.63036
362.125	-7.55127
362.34	-26.51589
362.555	-85.50398
362.77	17.73793
362.986	-26.51589
363.201	53.57014
363.416	-34.94396
363.631	-1.2293
363.847	7.20034
364.062	-93.92922
364.277	-43.37164
364.492	47.24632
364.707	28.27611
364.922	7.20034
365.138	64.1103
365.353	-22.3017
365.568	-18.08741
365.783	93.62577
365.998	7.20034
366.213	55.67812
366.428	-34.94396
366.643	17.73793
366.858	-34.94396
367.073	-28.62294
367.288	7.20034
367.503	5.09289
367.718	-81.29121
367.933	36.70708
368.148	-7.55127
368.363	-62.33245
368.578	-51.79892
368.793	-39.15785
369.008	-22.3017
369.223	17.73793
369.438	-70.75882
369.653	-3.33665
369.868	-41.26476
370.083	15.63036
370.298	19.84552
370.513	-56.01241
370.728	-43.37164
370.943	-77.07833
371.157	24.06077
371.372	13.52282
371.587	19.84552
371.802	-51.79892
372.017	-26.51589
372.232	-47.58533
372.446	-34.94396
372.661	55.67812
372.876	-89.71665
373.091	19.84552
373.306	21.95313
373.52	-72.86535
373.735	13.52282
373.95	-1.2293
374.165	-39.15785
374.379	-30.72997
374.594	-24.40881
374.809	15.63036
375.023	-72.86535
375.238	-41.26476
375.453	-15.98024
375.667	38.81488
375.882	-102.35404
376.097	-53.90568
376.311	-51.79892
376.526	64.1103
376.741	0.87808
376.955	21.95313
377.17	-28.62294
377.384	28.27611
377.599	-30.72997
377.813	-11.7658
378.028	59.89417
378.242	-60.2258
378.457	17.73793
378.672	28.27611
378.886	-1.2293
379.101	5.09289
379.315	2.98547
379.53	-26.51589
379.744	-20.19457
379.958	15.63036
380.173	-22.3017
380.387	-22.3017
380.602	57.78613
380.816	38.81488
381.031	-30.72997
381.245	99.95108
381.459	32.49155
381.674	-18.08741
381.888	-11.7658
382.103	21.95313
382.317	-22.3017
382.531	-70.75882
382.746	45.13842
382.96	-9.65855
383.174	21.95313
383.388	-62.33245
383.603	59.89417
383.817	83.08402
384.031	-30.72997
384.246	-20.19457
384.46	-1.2293
384.674	70.43467
384.888	-22.3017
385.103	19.84552
385.317	-37.05092
385.531	-18.08741
385.745	19.84552
385.959	-60.2258
386.174	53.57014
386.388	95.73419
386.602	-37.05092
386.816	-49.69214
387.03	30.38382
387.244	-70.75882
387.458	2.98547
387.672	-45.4785
387.887	-24.40881
388.101	55.67812
388.315	53.57014
388.529	-60.2258
388.743	-22.3017
388.957	-7.55127
389.171	-24.40881
389.385	-56.01241
389.599	36.70708
389.813	-13.87303
390.027	30.38382
390.241	-11.7658
390.455	-51.79892
390.669	-15.98024
390.883	-34.94396
391.097	-9.65855
391.311	11.4153
391.525	7.20034
391.738	-64.43909
391.952	-47.58533
392.166	21.95313
392.38	-3.33665
392.594	-9.65855
392.808	-47.58533
393.022	-43.37164
393.236	-13.87303
393.449	-53.90568
393.663	-15.98024
393.877	13.52282
394.091	-89.71665
394.305	-43.37164
394.518	-56.01241
394.732	-30.72997
394.946	45.13842
395.16	-45.4785
395.373	-106.56629
395.587	-5.44397
395.801	-5.44397
396.015	24.06077
396.228	-9.65855
396.442	28.27611
396.656	-53.90568
396.869	2.98547
397.083	-7.55127
397.297	2.98547
397.51	36.70708
397.724	49.35423
397.938	45.13842
398.151	-3.33665
398.365	26.16843
398.578	17.73793
398.792	-9.65855
399.005	-53.90568
399.219	15.63036
399.433	-5.44397
399.646	-39.15785
399.86	-56.01241
400.073	5.09289
400.287	40.92271
400.5	-13.87303
400.714	24.06077
400.927	5.09289
401.141	-34.94396
401.354	7.20034
401.567	7.20034
401.781	-83.39761
401.994	-37.05092
402.208	-7.55127
402.421	72.54284
402.635	-26.51589
402.848	-43.37164
403.061	-1.2293
403.275	-60.2258
403.488	-39.15785
403.701	-18.08741
403.915	-68.65227
404.128	-11.7658
404.341	28.27611
404.555	-64.43909
404.768	17.73793
404.981	-9.65855
405.195	-53.90568
405.408	11.4153
405.621	7.20034
405.834	-9.65855
406.048	-13.87303
406.261	38.81488
406.474	57.78613
406.687	-34.94396
406.9	-106.56629
407.114	-28.62294
407.327	-79.18478
407.54	-47.58533
407.753	47.24632
407.966	-56.01241
408.179	-114.99048
408.392	-110.77844
408.605	-13.87303
408.819	-64.43909
409.032	13.52282
409.245	7.20034
409.458	70.43467
409.671	47.24632
409.884	32.49155
410.097	-106.56629
410.31	80.97574
410.523	-39.15785
410.736	-81.29121
410.949	26.16843
411.162	-26.51589
411.375	45.13842
411.588	-20.19457
411.801	-3.33665
412.014	-11.7658
412.227	13.52282
412.44	2.98547
412.653	-18.08741
412.865	-22.3017
413.078	36.70708
413.291	2.98547
413.504	-77.07833
413.717	-20.19457
413.93	-41.26476
414.143	-30.72997
414.356	-5.44397
414.568	-26.51589
414.781	-22.3017
414.994	13.52282
415.207	-15.98024
415.42	45.13842
415.632	-56.01241
415.845	13.52282
416.058	-9.65855
416.271	9.30781
416.483	-34.94396
416.696	-30.72997
416.909	-13.87303
417.121	15.63036
417.334	-106.56629
417.547	-39.15785
417.759	11.4153
417.972	11.4153
418.185	-39.15785
418.397	-77.07833
418.61	-34.94396
418.823	-53.90568
419.035	-15.98024
419.248	-28.62294
419.46	32.49155
419.673	19.84552
419.885	-64.43909
420.098	-3.33665
420.311	-58.11912
420.523	45.13842
420.736	-24.40881
420.948	17.73793
421.161	-18.08741
421.373	-28.62294
421.586	-64.43909
421.798	-68.65227
422.01	-34.94396
422.223	-60.2258
422.435	-72.86535
422.648	-70.75882
422.86	9.30781
423.073	-9.65855
423.285	21.95313
423.497	59.89417
423.71	-43.37164
423.922	11.4153
424.134	62.00222
424.347	-26.51589
424.559	0.87808
424.771	-74.97185
424.984	7.20034
425.196	-20.19457
425.408	-9.65855
425.621	30.38382
425.833	-9.65855
426.045	68.32652
426.257	9.30781
426.47	5.09289
426.682	15.63036
426.894	7.20034
427.106	-5.44397
427.318	-49.69214
427.531	21.95313
427.743	-18.08741
427.955	24.06077
428.167	32.49155
428.379	-28.62294
428.591	-11.7658
428.804	-83.39761
429.016	-28.62294
429.228	-39.15785
429.44	-68.65227
429.652	5.09289
429.864	13.52282
430.076	-3.33665
430.288	-13.87303
430.5	-11.7658
430.712	49.35423
430.924	11.4153
431.136	32.49155
431.348	-129.73178
431.56	-5.44397
431.772	-15.98024
431.984	19.84552
432.196	-37.05092
432.408	-81.29121
432.62	-1.2293
432.832	-3.33665
433.044	-37.05092
433.256	-87.61033
433.468	-22.3017
433.679	-5.44397
433.891	5.09289
434.103	-70.75882
434.315	38.81488
434.527	32.49155
434.739	32.49155
434.95	5.09289
435.162	-56.01241
435.374	5.09289
435.586	-81.29121
435.798	-7.55127
436.009	-20.19457
436.221	-5.44397
436.433	13.52282
436.645	49.35423
436.856	2.98547
437.068	-5.44397
437.28	45.13842
437.491	7.20034
437.703	-13.87303
437.915	2.98547
438.126	-28.62294
438.338	-22.3017
438.55	-70.75882
438.761	7.20034
438.973	40.92271
439.184	-62.33245
439.396	-47.58533
439.608	19.84552
439.819	-18.08741
440.031	15.63036
440.242	-79.18478
440.454	-15.98024
440.665	-22.3017
440.877	-5.44397
441.088	-13.87303
441.3	-56.01241
441.511	2.98547
441.723	-62.33245
441.934	-28.62294
442.146	57.78613
442.357	45.13842
442.569	49.35423
442.78	11.4153
442.991	45.13842
443.203	-66.54569
443.414	51.46218
443.626	32.49155
443.837	7.20034
444.048	-1.2293
444.26	-18.08741
444.471	-51.79892
444.682	-60.2258
444.894	-22.3017
445.105	-47.58533
445.316	-70.75882
445.528	-47.58533
445.739	-20.19457
445.95	-30.72997
446.161	-58.11912
446.373	38.81488
446.584	7.20034
446.795	-53.90568
447.006	45.13842
447.217	-18.08741
447.429	13.52282
447.64	68.32652
447.851	-22.3017
448.062	-22.3017
448.273	-74.97185
448.484	-22.3017
448.695	-47.58533
448.907	70.43467
449.118	-79.18478
449.329	57.78613
449.54	-68.65227
449.751	36.70708
449.962	5.09289
450.173	-26.51589
450.384	-41.26476
450.595	-45.4785
450.806	-13.87303
451.017	28.27611
451.228	-30.72997
451.439	13.52282
451.65	-30.72997
451.861	-11.7658
452.072	-22.3017
452.283	-47.58533
452.494	-26.51589
452.705	-5.44397
452.915	36.70708
453.126	-39.15785
453.337	-24.40881
453.548	17.73793
453.759	30.38382
453.97	-37.05092
454.181	57.78613
454.391	28.27611
454.602	19.84552
454.813	-3.33665
455.024	-11.7658
455.235	2.98547
455.445	-45.4785
455.656	-3.33665
455.867	64.1103
456.078	21.95313
456.288	0.87808
456.499	-5.44397
456.71	-30.72997
456.921	-1.2293
457.131	-30.72997
457.342	80.97574
457.553	-51.79892
457.763	-34.94396
457.974	-11.7658
458.184	9.30781
458.395	-32.83698
458.606	-70.75882
458.816	11.4153
459.027	5.09289
459.237	0.87808
459.448	11.4153
459.659	-56.01241
459.869	19.84552
460.08	-72.86535
460.29	19.84552
460.501	-34.94396
460.711	11.4153
460.922	19.84552
461.132	21.95313
461.343	-64.43909
461.553	-9.65855
461.764	-28.62294
461.974	45.13842
462.184	-56.01241
462.395	-18.08741
462.605	-13.87303
462.816	-77.07833
463.026	19.84552
463.236	-5.44397
463.447	-22.3017
463.657	-20.19457
463.867	28.27611
464.078	-18.08741
464.288	5.09289
464.498	-5.44397
464.709	-20.19457
464.919	70.43467
465.129	-53.90568
465.339	24.06077
465.55	9.30781
465.76	11.4153
465.97	-51.79892
466.18	-22.3017
466.391	-37.05092
466.601	-5.44397
466.811	49.35423
467.021	66.2184
467.231	-37.05092
467.441	45.13842
467.651	-15.98024
467.862	-9.65855
468.072	-72.86535
468.282	-26.51589
468.492	11.4153
468.702	45.13842
468.912	-9.65855
469.122	24.06077
469.332	-47.58533
469.542	21.95313
469.752	-93.92922
469.962	24.06077
470.172	15.63036
470.382	19.84552
470.592	72.54284
470.802	-81.29121
471.012	47.24632
471.222	13.52282
471.432	2.98547
471.642	-11.7658
471.852	55.67812
472.062	13.52282
472.272	-3.33665
472.482	-13.87303
472.691	-22.3017
472.901	-11.7658
473.111	5.09289
473.321	-34.94396
473.531	-30.72997
473.741	-9.65855
473.95	-62.33245
474.16	-11.7658
474.37	-13.87303
474.58	-11.7658
474.79	-13.87303
474.999	19.84552
475.209	-5.44397
475.419	11.4153
475.628	-3.33665
475.838	-53.90568
476.048	11.4153
476.258	2.98547
476.467	-58.11912
476.677	-18.08741
476.886	53.57014
477.096	28.27611
477.306	28.27611
477.515	11.4153
477.725	-43.37164
477.935	87.30066
478.144	5.09289
478.354	15.63036
478.563	-56.01241
478.773	-22.3017
478.982	-37.05092
479.192	11.4153
479.401	5.09289
479.611	-64.43909
479.82	-56.01241
480.03	-45.4785
480.239	2.98547
480.449	-9.65855
480.658	2.98547
480.868	-18.08741
481.077	32.49155
481.287	-41.26476
481.496	2.98547
481.705	-20.19457
481.915	-47.58533
482.124	-30.72997
482.333	-30.72997
482.543	-18.08741
482.752	-9.65855
482.961	-5.44397
483.171	-20.19457
483.38	-13.87303
483.589	2.98547
483.799	-11.7658
484.008	-62.33245
484.217	-13.87303
484.426	2.98547
484.636	-13.87303
484.845	-34.94396
485.054	-121.30834
485.263	45.13842
485.472	-18.08741
485.682	2.98547
485.891	64.1103
486.1	45.13842
486.309	40.92271
486.518	30.38382
486.727	-56.01241
486.936	-5.44397
487.146	-9.65855
487.355	-64.43909
487.564	70.43467
487.773	-45.4785
487.982	-39.15785
488.191	28.27611
488.4	53.57014
488.609	49.35423
488.818	-5.44397
489.027	-45.4785
489.236	-34.94396
489.445	64.1103
489.654	-30.72997
489.863	53.57014
490.072	-47.58533
490.281	49.35423
490.49	-37.05092
490.698	13.52282
490.907	-28.62294
491.116	-5.44397
491.325	47.24632
491.534	68.32652
491.743	72.54284
491.952	47.24632
492.16	36.70708
492.369	15.63036
492.578	47.24632
492.787	21.95313
492.996	64.1103
493.204	-60.2258
493.413	53.57014
493.622	62.00222
493.831	-13.87303
494.039	19.84552
494.248	38.81488
494.457	19.84552
494.665	38.81488
494.874	-20.19457
495.083	5.09289
495.291	2.98547
495.5	68.32652
495.709	53.57014
495.917	38.81488
496.126	-5.44397
496.335	28.27611
496.543	66.2184
496.752	0.87808
496.96	59.89417
497.169	17.73793
497.377	62.00222
497.586	36.70708
497.794	7.20034
498.003	-3.33665
498.211	9.30781
498.42	74.65103
498.628	9.30781
498.837	15.63036
499.045	36.70708
499.254	45.13842
499.462	55.67812
499.671	2.98547
499.879	28.27611
500.087	11.4153
500.296	55.67812
500.504	-51.79892
500.713	21.95313
500.921	-1.2293
501.129	11.4153
501.338	57.78613
501.546	19.84552
501.754	19.84552
501.962	-64.43909
502.171	11.4153
502.379	38.81488
502.587	38.81488
502.795	-43.37164
503.004	-5.44397
503.212	76.75925
503.42	47.24632
503.628	57.78613
503.837	104.16807
504.045	-89.71665
504.253	-43.37164
504.461	43.03055
504.669	55.67812
504.877	0.87808
505.085	53.57014
505.294	-15.98024
505.502	108.38515
505.71	83.08402
505.918	91.51738
506.126	2.98547
506.334	51.46218
506.542	32.49155
506.75	30.38382
506.958	-3.33665
507.166	83.08402
507.374	55.67812
507.582	80.97574
507.79	129.47183
507.998	104.16807
508.206	83.08402
508.414	114.71092
508.622	116.81956
508.83	21.95313
509.037	2.98547
509.245	28.27611
509.453	62.00222
509.661	87.30066
509.869	91.51738
510.077	45.13842
510.285	34.5993
510.492	2.98547
510.7	78.86748
510.908	-9.65855
511.116	70.43467
511.324	45.13842
511.531	70.43467
511.739	53.57014
511.947	70.43467
512.155	76.75925
512.362	87.30066
512.57	36.70708
512.778	72.54284
512.985	112.60231
513.193	72.54284
513.401	87.30066
513.608	87.30066
513.816	87.30066
514.024	137.90711
514.231	173.76082
514.439	36.70708
514.646	62.00222
514.854	45.13842
515.061	106.2766
515.269	70.43467
515.477	131.58062
515.684	19.84552
515.892	135.79826
516.099	129.47183
516.307	121.0369
516.514	72.54284
516.722	62.00222
516.929	95.73419
517.136	68.32652
517.344	112.60231
517.551	146.34273
517.759	137.90711
517.966	78.86748
518.173	154.77869
518.381	173.76082
518.588	97.84262
518.796	123.1456
519.003	32.49155
519.21	104.16807
519.418	78.86748
519.625	19.84552
519.832	95.73419
520.039	87.30066
520.247	150.56067
520.454	131.58062
520.661	80.97574
520.868	87.30066
521.076	137.90711
521.283	171.65161
521.49	133.68943
521.697	146.34273
521.904	121.0369
522.112	55.67812
522.319	137.90711
522.526	169.54242
522.733	133.68943
522.94	74.65103
523.147	114.71092
523.354	188.52586
523.561	154.77869
523.768	78.86748
523.975	129.47183
524.183	148.45169
524.39	158.99679
524.597	104.16807
524.804	171.65161
525.011	97.84262
525.218	146.34273
525.425	47.24632
525.632	171.65161
525.838	104.16807
526.045	135.79826
526.252	171.65161
526.459	87.30066
526.666	218.05892
526.873	93.62577
527.08	154.77869
527.287	180.08857
527.494	131.58062
527.701	158.99679
527.907	247.59586
528.114	146.34273
528.321	129.47183
528.528	184.30718
528.735	108.38515
528.941	186.41651
529.148	152.66967
529.355	180.08857
529.562	140.01598
529.768	222.27825
529.975	215.94929
530.182	201.1824
530.388	245.48595
530.595	224.38794
530.802	194.85404
531.008	220.16857
531.215	180.08857
531.422	177.9793
531.628	209.6205
531.835	283.46719
532.042	167.43326
532.248	264.47581
532.455	196.96348
532.661	251.81573
532.868	247.59586
533.074	258.14568
533.281	154.77869
533.487	239.15634
533.694	224.38794
533.9	285.57744
534.107	205.40141
534.313	317.23335
534.52	249.70578
534.726	220.16857
534.933	213.83967
535.139	256.03568
535.345	247.59586
535.552	306.68093
535.758	243.37606
535.965	298.23931
536.171	319.34389
536.377	203.2919
536.584	323.56502
536.79	275.02639
536.996	266.58589
537.203	224.38794
537.409	325.67561
537.615	367.89113
537.821	224.38794
538.028	332.0075
538.234	243.37606
538.44	294.01862
538.646	222.27825
538.853	232.82691
539.059	256.03568
539.265	260.25571
539.471	285.57744
539.677	363.66927
539.883	300.34969
540.09	346.78251
540.296	344.67174
540.502	319.34389
540.708	342.56099
540.914	291.9083
541.12	308.79138
541.326	403.77968
541.532	310.90184
541.738	340.45025
541.944	327.78622
542.15	378.44609
542.356	323.56502
542.562	353.11491
542.768	391.11258
542.974	424.8928
543.18	382.66819
543.386	467.12378
543.592	315.12283
543.798	473.45896
544.004	391.11258
544.21	321.45445
544.415	264.47581
544.621	441.78444
544.827	433.33849
545.033	467.12378
545.239	418.55869
545.445	443.89597
545.651	399.55725
545.856	522.03308
546.062	399.55725
546.268	380.55713
546.474	403.77968
546.679	393.22373
546.885	433.33849
547.091	488.24157
547.297	391.11258
547.502	536.81802
547.708	448.11907
547.914	408.00217
548.119	416.44736
548.325	555.82823
548.531	338.33954
548.736	443.89597
548.942	382.66819
549.147	505.13686
549.353	397.44606
549.559	536.81802
549.764	441.78444
549.97	543.15464
550.175	543.15464
550.381	595.96448
550.586	446.00751
550.792	543.15464
550.997	471.34722
551.203	484.01789
551.408	486.12972
551.614	524.14517
551.819	541.04242
552.025	505.13686
552.23	551.60365
552.435	627.6543
552.641	623.42883
552.846	576.95198
553.052	519.921
553.257	619.20341
553.462	513.58486
553.668	636.1054
553.873	484.01789
554.078	623.42883
554.283	602.30222
554.489	629.76706
554.694	655.12107
554.899	680.47679
555.105	621.31611
555.31	712.17376
555.515	581.17689
555.72	640.33102
555.925	610.75271
556.131	745.98656
556.336	657.23398
556.541	619.20341
556.746	644.55668
556.951	737.53311
557.156	631.87982
557.361	834.75747
557.567	680.47679
557.772	691.04216
557.977	743.87318
558.182	661.45984
558.387	754.44019
558.592	686.81598
558.797	612.86537
559.002	817.84743
559.207	758.66706
559.412	682.58984
559.617	669.9117
559.822	729.07982
560.027	638.2182
560.232	838.98507
560.437	807.27896
560.642	893.947
560.847	739.64646
561.051	881.26297
561.256	858.0097
561.461	957.37129
561.666	834.75747
561.871	813.62002
562.076	838.98507
562.281	834.75747
562.485	737.53311
562.69	796.71072
562.895	796.71072
563.1	965.82836
563.305	781.91558
563.509	993.31459
563.714	784.02915
563.919	948.91433
564.123	889.71896
564.328	885.49095
564.533	794.5971
564.737	906.63131
564.942	951.02856
565.147	898.17507
565.351	891.83297
565.556	948.91433
565.761	858.0097
565.965	999.65772
566.17	864.3514
566.374	1075.77955
566.579	948.91433
566.784	1054.63385
566.988	847.44038
567.193	1113.84309
567.397	849.55422
567.602	1041.9467
567.806	855.89582
568.011	1094.81112
568.215	982.74283
568.42	1084.23797
568.624	1039.83219
568.828	898.17507
569.033	965.82836
569.237	1001.77211
569.442	934.11494
569.646	1022.91636
569.85	1008.11532
570.055	1033.48871
570.259	1145.56388
570.463	1151.90816
570.668	1113.84309
570.872	1223.81234
571.076	1128.646
571.281	1141.33439
571.485	957.37129
571.689	1096.92576
571.893	1088.46722
572.098	1118.07247
572.302	1096.92576
572.506	1213.23794
572.71	1033.48871
572.914	1147.67864
573.119	1168.8264
573.323	1141.33439
573.527	1092.69648
573.731	1173.056
573.935	1101.15507
574.139	1280.91532
574.343	1189.97456
574.547	1297.83507
574.751	1126.53129
574.955	1361.2852
575.159	1145.56388
575.364	1278.80036
575.568	1240.73153
575.772	1304.18002
575.976	1080.00875
576.18	1414.16117
576.383	1154.02292
576.587	1373.97538
576.791	1255.53598
576.995	1354.94013
577.199	1147.67864
577.403	1348.59506
577.607	1291.49015
577.811	1414.16117
578.015	1382.43552
578.219	1384.55056
578.422	1160.36725
578.626	1405.70098
578.83	1359.17017
579.034	1439.54177
579.238	1361.2852
579.442	1464.9224
579.645	1240.73153
579.849	1536.83389
580.053	1363.40023
580.257	1473.3826
580.46	1395.12576
580.664	1562.21417
580.868	1428.96651
581.071	1585.47925
581.275	1287.26021
581.479	1435.31167
581.682	1439.54177
581.886	1541.06395
582.09	1464.9224
582.293	1642.58352
582.497	1475.49765
