Data from mixed_try1_USB4F045381__15__00240.txt Node

Date: Thu Apr 03 20:24:32 EDT 2025
User: mmckonesweet
Spectrometer: USB4F04538
Trigger mode: 4
Integration Time (sec): 2.700000E-3
Scans to average: 1
Electric dark correction enabled: true
Nonlinearity correction enabled: true
Boxcar width: 0
XAxis mode: Wavelengths
Number of Pixels in Spectrum: 3648
>>>>>Begin Spectral Data<<<<<
345.52	100.3025
345.736	100.3025
345.952	100.3025
346.168	-49.34101
346.384	-2.98542
346.6	26.51971
346.816	91.86877
347.032	24.41204
347.248	-17.73622
347.464	-49.34101
347.68	-26.16471
347.896	-24.05762
348.112	-45.12736
348.328	-2.98542
348.544	-51.44779
348.76	34.9506
348.975	39.16618
349.191	89.7604
349.407	68.67788
349.623	30.7351
349.839	26.51971
350.055	-36.69976
350.27	39.16618
350.486	22.3044
350.702	49.70556
350.918	22.3044
351.133	47.59764
351.349	-17.73622
351.565	51.8135
351.781	64.46165
351.996	-0.87807
352.212	26.51971
352.428	-32.48582
352.644	39.16618
352.859	56.02946
353.075	64.46165
353.291	-47.2342
353.506	-0.87807
353.722	18.08919
353.938	-57.768
354.153	43.38186
354.369	49.70556
354.584	75.0024
354.8	47.59764
355.016	-17.73622
355.231	-17.73622
355.447	81.32712
355.662	60.24551
355.878	56.02946
356.093	-19.84338
356.309	34.9506
356.524	56.02946
356.74	41.27401
356.955	-13.52183
357.171	22.3044
357.386	47.59764
357.602	-2.98542
357.817	-24.05762
358.033	58.13747
358.248	-17.73622
358.464	72.8942
358.679	15.98162
358.895	9.65906
359.11	-9.30734
359.325	62.35357
359.541	43.38186
359.756	47.59764
359.972	89.7604
360.187	26.51971
360.402	-21.95051
360.618	-15.62904
360.833	-11.4146
361.048	83.43541
361.264	39.16618
361.479	1.22931
361.694	-28.27177
361.909	1.22931
362.125	43.38186
362.34	39.16618
362.555	30.7351
362.77	-26.16471
362.986	30.7351
363.201	13.87408
363.416	-7.20006
363.631	-28.27177
363.847	-7.20006
364.062	13.87408
364.277	13.87408
364.492	83.43541
364.707	47.59764
364.922	-7.20006
365.138	70.78603
365.353	56.02946
365.568	5.44413
365.783	30.7351
365.998	7.55158
366.213	64.46165
366.428	58.13747
366.643	-70.40773
366.858	22.3044
367.073	7.55158
367.288	45.48974
367.503	22.3044
367.718	5.44413
367.933	22.3044
368.148	47.59764
368.363	26.51971
368.578	60.24551
368.793	-26.16471
369.008	-5.09275
369.223	28.62739
369.438	-24.05762
369.653	53.92147
369.868	106.62802
370.083	66.56975
370.298	-2.98542
370.513	-19.84338
370.728	3.33671
370.943	3.33671
371.157	9.65906
371.372	13.87408
371.587	9.65906
371.802	43.38186
372.017	11.76656
372.232	15.98162
372.446	5.44413
372.661	-2.98542
372.876	5.44413
373.091	41.27401
373.306	79.21886
373.52	43.38186
373.735	47.59764
373.95	51.8135
374.165	-2.98542
374.379	81.32712
374.594	56.02946
374.809	-59.87469
375.023	47.59764
375.238	72.8942
375.453	60.24551
375.667	26.51971
375.882	47.59764
376.097	56.02946
376.311	5.44413
376.526	15.98162
376.741	39.16618
376.955	15.98162
377.17	-17.73622
377.384	47.59764
377.599	7.55158
377.813	-0.87807
378.028	64.46165
378.242	49.70556
378.457	104.51949
378.672	47.59764
378.886	9.65906
379.101	13.87408
379.315	9.65906
379.53	43.38186
379.744	34.9506
379.958	-7.20006
380.173	45.48974
380.387	9.65906
380.602	-49.34101
380.816	-51.44779
381.031	75.0024
381.245	11.76656
381.459	24.41204
381.674	34.9506
381.888	13.87408
382.103	-2.98542
382.317	9.65906
382.531	30.7351
382.746	15.98162
382.96	39.16618
383.174	-9.30734
383.388	32.84284
383.603	5.44413
383.817	22.3044
384.031	62.35357
384.246	24.41204
384.46	53.92147
384.674	22.3044
384.888	13.87408
385.103	49.70556
385.317	85.54372
385.531	18.08919
385.745	-0.87807
385.959	58.13747
386.174	-2.98542
386.388	13.87408
386.602	30.7351
386.816	13.87408
387.03	-24.05762
387.244	64.46165
387.458	-24.05762
387.672	39.16618
387.887	-47.2342
388.101	34.9506
388.315	26.51971
388.529	64.46165
388.743	-45.12736
388.957	72.8942
389.171	18.08919
389.385	1.22931
389.599	-9.30734
389.813	115.06236
390.027	-11.4146
390.241	58.13747
390.455	47.59764
390.669	-7.20006
390.883	22.3044
391.097	56.02946
391.311	39.16618
391.525	-26.16471
391.738	64.46165
391.952	89.7604
392.166	-19.84338
392.38	-28.27177
392.594	70.78603
392.808	60.24551
393.022	64.46165
393.236	34.9506
393.449	41.27401
393.663	1.22931
393.877	41.27401
394.091	9.65906
394.305	98.19403
394.518	-47.2342
394.732	64.46165
394.946	85.54372
395.16	22.3044
395.373	75.0024
395.587	-17.73622
395.801	-11.4146
396.015	-21.95051
396.228	51.8135
396.442	-13.52183
396.656	-45.12736
396.869	91.86877
397.083	75.0024
397.297	5.44413
397.51	47.59764
397.724	47.59764
397.938	-19.84338
398.151	-40.91361
398.365	60.24551
398.578	5.44413
398.792	-28.27177
399.005	75.0024
399.219	32.84284
399.433	41.27401
399.646	32.84284
399.86	72.8942
400.073	22.3044
400.287	-53.55456
400.5	34.9506
400.714	-15.62904
400.927	-9.30734
401.141	7.55158
401.354	3.33671
401.567	24.41204
401.781	-9.30734
401.994	47.59764
402.208	30.7351
402.421	41.27401
402.635	-0.87807
402.848	51.8135
403.061	-11.4146
403.275	77.11062
403.488	72.8942
403.701	72.8942
403.915	-19.84338
404.128	13.87408
404.341	24.41204
404.555	58.13747
404.768	9.65906
404.981	-55.66129
405.195	-11.4146
405.408	-19.84338
405.621	-26.16471
405.834	-49.34101
406.048	-15.62904
406.261	-11.4146
406.474	123.49705
406.687	-0.87807
406.9	123.49705
407.114	-2.98542
407.327	41.27401
407.54	81.32712
407.753	64.46165
407.966	-7.20006
408.179	53.92147
408.392	43.38186
408.605	115.06236
408.819	-40.91361
409.032	131.93208
409.245	9.65906
409.458	34.9506
409.671	62.35357
409.884	-70.40773
410.097	30.7351
410.31	39.16618
410.523	-32.48582
410.736	-32.48582
410.949	-30.3788
411.162	66.56975
411.375	98.19403
411.588	39.16618
411.801	-36.69976
412.014	-19.84338
412.227	47.59764
412.44	72.8942
412.653	22.3044
412.865	-28.27177
413.078	-7.20006
413.291	81.32712
413.504	64.46165
413.717	13.87408
413.93	47.59764
414.143	5.44413
414.356	3.33671
414.568	37.05838
414.781	-11.4146
414.994	49.70556
415.207	7.55158
415.42	39.16618
415.632	68.67788
415.845	37.05838
416.058	39.16618
416.271	5.44413
416.483	30.7351
416.696	60.24551
416.909	22.3044
417.121	-11.4146
417.334	-28.27177
417.547	41.27401
417.759	47.59764
417.972	43.38186
418.185	-43.0205
418.397	53.92147
418.61	1.22931
418.823	81.32712
419.035	22.3044
419.248	-15.62904
419.46	20.19678
419.673	-9.30734
419.885	56.02946
420.098	7.55158
420.311	-40.91361
420.523	106.62802
420.736	22.3044
420.948	18.08919
421.161	-19.84338
421.373	77.11062
421.586	-70.40773
421.798	26.51971
422.01	43.38186
422.223	22.3044
422.435	5.44413
422.648	-26.16471
422.86	-11.4146
423.073	43.38186
423.285	13.87408
423.497	79.21886
423.71	-11.4146
423.922	-30.3788
424.134	-11.4146
424.347	34.9506
424.559	24.41204
424.771	18.08919
424.984	60.24551
425.196	41.27401
425.408	11.76656
425.621	9.65906
425.833	13.87408
426.045	87.65205
426.257	-5.09275
426.47	56.02946
426.682	-11.4146
426.894	75.0024
427.106	28.62739
427.318	45.48974
427.531	20.19678
427.743	30.7351
427.955	13.87408
428.167	89.7604
428.379	13.87408
428.591	83.43541
428.804	3.33671
429.016	58.13747
429.228	-9.30734
429.44	1.22931
429.652	-28.27177
429.864	30.7351
430.076	-53.55456
430.288	-32.48582
430.5	91.86877
430.712	22.3044
430.924	15.98162
431.136	5.44413
431.348	51.8135
431.56	87.65205
431.772	-2.98542
431.984	-11.4146
432.196	5.44413
432.408	-11.4146
432.62	-36.69976
432.832	-45.12736
433.044	26.51971
433.256	5.44413
433.468	72.8942
433.679	89.7604
433.891	72.8942
434.103	34.9506
434.315	77.11062
434.527	-24.05762
434.739	85.54372
434.95	72.8942
435.162	56.02946
435.374	45.48974
435.586	-11.4146
435.798	9.65906
436.009	13.87408
436.221	13.87408
436.433	68.67788
436.645	64.46165
436.856	64.46165
437.068	-21.95051
437.28	5.44413
437.491	75.0024
437.703	75.0024
437.915	43.38186
438.126	47.59764
438.338	56.02946
438.55	64.46165
438.761	-28.27177
438.973	-2.98542
439.184	100.3025
439.396	18.08919
439.608	47.59764
439.819	13.87408
440.031	-15.62904
440.242	-28.27177
440.454	30.7351
440.665	30.7351
440.877	15.98162
441.088	64.46165
441.3	-5.09275
441.511	77.11062
441.723	51.8135
441.934	13.87408
442.146	-2.98542
442.357	32.84284
442.569	47.59764
442.78	64.46165
442.991	-11.4146
443.203	18.08919
443.414	9.65906
443.626	41.27401
443.837	24.41204
444.048	-45.12736
444.26	5.44413
444.471	18.08919
444.682	60.24551
444.894	7.55158
445.105	96.08559
445.316	3.33671
445.528	83.43541
445.739	32.84284
445.95	47.59764
446.161	30.7351
446.373	56.02946
446.584	85.54372
446.795	56.02946
447.006	43.38186
447.217	-17.73622
447.429	-15.62904
447.64	102.41098
447.851	72.8942
448.062	98.19403
448.273	60.24551
448.484	-36.69976
448.695	102.41098
448.907	56.02946
449.118	96.08559
449.329	24.41204
449.54	34.9506
449.751	30.7351
449.962	30.7351
450.173	41.27401
450.384	41.27401
450.595	30.7351
450.806	47.59764
451.017	49.70556
451.228	75.0024
451.439	75.0024
451.65	13.87408
451.861	-11.4146
452.072	83.43541
452.283	72.8942
452.494	56.02946
452.705	5.44413
452.915	104.51949
453.126	56.02946
453.337	24.41204
453.548	53.92147
453.759	-45.12736
453.97	5.44413
454.181	100.3025
454.391	72.8942
454.602	7.55158
454.813	108.73657
455.024	-28.27177
455.235	-7.20006
455.445	7.55158
455.656	26.51971
455.867	89.7604
456.078	13.87408
456.288	26.51971
456.499	121.38835
456.71	72.8942
456.921	81.32712
457.131	49.70556
457.342	43.38186
457.553	30.7351
457.763	30.7351
457.974	41.27401
458.184	26.51971
458.395	1.22931
458.606	56.02946
458.816	85.54372
459.027	47.59764
459.237	60.24551
459.448	-7.20006
459.659	32.84284
459.869	49.70556
460.08	39.16618
460.29	75.0024
460.501	-17.73622
460.711	81.32712
460.922	15.98162
461.132	53.92147
461.343	47.59764
461.553	49.70556
461.764	41.27401
461.974	9.65906
462.184	-21.95051
462.395	22.3044
462.605	34.9506
462.816	64.46165
463.026	45.48974
463.236	5.44413
463.447	22.3044
463.657	75.0024
463.867	64.46165
464.078	110.84515
464.288	13.87408
464.498	79.21886
464.709	39.16618
464.919	45.48974
465.129	13.87408
465.339	58.13747
465.55	45.48974
465.76	64.46165
465.97	-7.20006
466.18	30.7351
466.391	77.11062
466.601	43.38186
466.811	87.65205
467.021	34.9506
467.231	45.48974
467.441	-15.62904
467.651	-5.09275
467.862	1.22931
468.072	41.27401
468.282	15.98162
468.492	49.70556
468.702	47.59764
468.912	7.55158
469.122	81.32712
469.332	89.7604
469.542	13.87408
469.752	22.3044
469.962	87.65205
470.172	1.22931
470.382	34.9506
470.592	43.38186
470.802	-17.73622
471.012	5.44413
471.222	72.8942
471.432	47.59764
471.642	22.3044
471.852	39.16618
472.062	89.7604
472.272	102.41098
472.482	75.0024
472.691	75.0024
472.901	75.0024
473.111	123.49705
473.321	41.27401
473.531	163.5665
473.741	93.97717
473.95	41.27401
474.16	72.8942
474.37	75.0024
474.58	85.54372
474.79	64.46165
474.999	49.70556
475.209	64.46165
475.419	60.24551
475.628	53.92147
475.838	49.70556
476.048	77.11062
476.258	49.70556
476.467	75.0024
476.677	18.08919
476.886	81.32712
477.096	39.16618
477.306	60.24551
477.515	39.16618
477.725	72.8942
477.935	83.43541
478.144	28.62739
478.354	53.92147
478.563	102.41098
478.773	15.98162
478.982	64.46165
479.192	77.11062
479.401	131.93208
479.611	87.65205
479.82	96.08559
480.03	72.8942
480.239	5.44413
480.449	100.3025
480.658	56.02946
480.868	138.25859
481.077	153.02117
481.287	131.93208
481.496	81.32712
481.705	148.80318
481.915	110.84515
482.124	104.51949
482.333	125.60578
482.543	43.38186
482.752	58.13747
482.961	87.65205
483.171	68.67788
483.38	121.38835
483.589	81.32712
483.799	60.24551
484.008	131.93208
484.217	108.73657
484.426	72.8942
484.636	93.97717
484.845	134.0409
485.054	81.32712
485.263	165.67563
485.472	77.11062
485.682	106.62802
485.891	172.00315
486.1	100.3025
486.309	146.69422
486.518	127.71452
486.727	77.11062
486.936	131.93208
487.146	161.45739
487.355	119.27966
487.564	148.80318
487.773	218.41053
487.982	172.00315
488.191	123.49705
488.4	129.82329
488.609	157.23924
488.818	140.36746
489.027	169.89395
489.236	239.50798
489.445	203.64348
489.654	150.91217
489.863	228.95901
490.072	66.56975
490.281	184.65873
490.49	195.20561
490.698	165.67563
490.907	231.06877
491.116	174.11236
491.325	195.20561
491.534	81.32712
491.743	218.41053
491.952	216.30089
492.16	256.38735
492.369	224.73956
492.578	233.17854
492.787	176.22159
492.996	247.94751
493.204	163.5665
493.413	144.58528
493.622	207.86254
493.831	207.86254
494.039	190.9868
494.248	233.17854
494.457	351.3559
494.665	220.52019
494.874	252.16739
495.083	241.61784
495.291	203.64348
495.5	351.3559
495.709	304.92223
495.917	326.02738
496.126	300.70142
496.335	140.36746
496.543	370.35392
496.752	326.02738
496.96	262.71742
497.169	338.69132
497.377	361.91018
497.586	336.58062
497.794	300.70142
498.003	207.86254
498.211	359.79929
498.42	245.8376
498.628	311.25359
498.837	262.71742
499.045	338.69132
499.254	342.91278
499.462	328.13799
499.671	309.14312
499.879	467.47573
500.087	342.91278
500.296	389.35331
500.504	440.02485
500.713	404.13155
500.921	416.79924
501.129	380.90897
501.338	328.13799
501.546	431.57895
501.754	435.80187
501.962	456.91739
502.171	372.4649
502.379	416.79924
502.587	304.92223
502.795	513.93686
503.004	370.35392
503.212	456.91739
503.42	389.35331
503.628	452.69416
503.837	342.91278
504.045	448.471
504.253	465.36403
504.461	427.3561
504.669	490.7054
504.877	604.76693
505.085	444.24789
505.294	547.73116
505.502	435.80187
505.71	494.92917
505.918	511.82484
506.126	564.62963
506.334	486.48169
506.542	577.30405
506.75	516.0489
506.958	558.2926
507.166	549.84342
507.374	608.99218
507.582	507.60084
507.79	581.52897
507.998	526.6093
508.206	640.68315
508.414	547.73116
508.622	655.47322
508.83	613.21748
509.037	685.05508
509.245	575.19162
509.453	714.63918
509.661	554.06798
509.869	706.18636
510.077	621.66823
510.285	706.18636
510.492	598.42915
510.7	632.23195
510.908	611.10482
511.116	657.58613
511.324	545.61891
511.531	630.11918
511.739	623.78095
511.947	651.24742
512.155	691.39435
512.362	672.37686
512.57	729.43204
512.778	670.26386
512.985	752.679
513.193	835.10977
513.401	657.58613
513.608	854.13426
513.816	754.79243
514.024	756.90586
514.231	809.74492
514.439	887.95728
514.646	824.54092
514.854	835.10977
515.061	792.83576
515.269	742.11204
515.477	778.04075
515.684	877.38736
515.892	926.01066
516.099	830.8822
516.307	765.35969
516.514	995.78135
516.722	866.81764
516.929	1021.15431
517.136	900.64146
517.344	959.83792
517.551	849.90653
517.759	1029.61216
517.966	1010.58214
518.173	892.18531
518.381	978.86656
518.588	961.95219
518.796	953.49517
519.003	964.06646
519.21	974.63792
519.418	1059.21537
519.625	1021.15431
519.832	1057.10082
520.039	1038.07011
520.247	1133.2279
520.454	1044.41363
520.661	1264.34821
520.868	997.89573
521.076	1226.27971
521.283	909.09773
521.49	1162.8345
521.697	1171.29367
521.904	1205.13096
522.112	1095.16356
522.319	1268.5781
522.526	1150.14586
522.733	1321.45245
522.94	1224.16482
523.147	1268.5781
523.354	1080.36118
523.561	1277.0379
523.768	1188.2122
523.975	1406.05349
524.183	1198.7864
524.39	1361.6377
524.597	1384.90307
524.804	1391.24818
525.011	1268.5781
525.218	1300.30255
525.425	1374.32789
525.632	1399.70835
525.838	1258.0034
526.045	1456.8147
526.252	1247.42876
526.459	1571.02672
526.666	1477.96521
526.873	1370.09782
527.08	1439.89428
527.287	1518.15108
527.494	1433.54912
527.701	1638.70612
527.907	1467.38996
528.114	1583.71675
528.321	1456.8147
528.528	1678.88967
528.735	1509.69092
528.941	1435.66417
529.148	1467.38996
529.355	1653.51069
529.562	1568.91171
529.768	1636.59117
529.975	1564.68169
530.182	1636.59117
530.388	1579.48675
530.595	1672.54496
530.802	1740.22044
531.008	1780.40108
531.215	1602.75169
531.422	1731.76119
531.628	1697.92364
531.835	1864.98694
532.042	1843.84117
532.248	1810.00694
532.455	1731.76119
532.661	1949.56482
532.868	1824.80956
533.074	1864.98694
533.281	1729.64637
533.487	1833.2681
533.694	1873.44512
533.9	2042.58948
534.107	1932.64996
534.313	2023.56274
534.52	1915.73473
534.726	2034.13322
534.933	1767.71261
535.139	2095.43856
535.345	1839.61195
535.552	2042.58948
535.758	2084.86911
535.965	2163.07853
536.171	2182.10079
536.377	2112.3493
536.584	2029.90505
536.79	2171.53295
536.996	2163.07853
537.203	2279.31484
537.409	1977.05066
537.615	2289.88043
537.821	2076.41341
538.028	2188.4414
538.234	2169.41936
538.44	2317.34988
538.646	2156.73762
538.853	2313.12392
539.059	2211.68964
539.265	2289.88043
539.471	2262.4094
539.677	2304.67187
539.883	2321.5758
540.09	2418.76107
540.296	2311.01092
540.502	2515.92397
540.708	2306.7849
540.914	2515.92397
541.12	2397.63568
541.326	2541.26691
541.532	2441.99778
541.738	2604.61686
541.944	2758.72169
542.15	2691.1773
542.356	2446.2225
542.562	2505.36393
542.768	2545.49057
542.974	2720.72963
543.18	2475.7943
543.386	2591.94773
543.592	2431.4358
543.798	2693.28827
544.004	2541.26691
544.21	2735.50483
544.415	2568.71987
544.621	2925.41202
544.827	2642.6216
545.033	2855.79256
545.239	2737.61552
545.445	2897.98805
545.651	2762.94277
545.856	3030.86547
546.062	2760.83224
546.268	2959.1612
546.474	2680.62229
546.679	2798.81971
546.885	2672.17804
547.091	2862.12225
547.297	2659.5113
547.502	3066.71098
547.708	2794.5991
547.914	3028.75677
548.119	2923.30257
548.325	3056.16865
548.531	2729.17268
548.736	3028.75677
548.942	2992.90656
549.147	3129.95669
549.353	2957.05198
549.559	3108.87637
549.764	2908.53602
549.97	3132.06464
550.175	3081.46958
550.381	3420.69563
550.586	2988.6886
550.792	3290.11376
550.997	3148.92761
551.203	3460.69911
551.408	3241.65529
551.614	3195.29543
551.819	3148.92761
552.025	3315.39287
552.23	3016.10426
552.435	3146.8198
552.641	3239.5482
552.846	3174.22013
553.052	3132.06464
553.257	3515.43017
553.462	3292.22044
553.668	3437.53999
553.873	3313.28637
554.078	3549.10469
554.283	3410.16733
554.489	3614.33558
554.694	3410.16733
554.899	3464.90962
555.105	3492.27622
555.31	3471.22526
555.515	3490.1712
555.72	3456.48852
555.925	3384.8976
556.131	3666.92801
556.336	3427.0124
556.541	3639.58142
556.746	3429.11795
556.951	3704.78719
557.156	3492.27622
557.361	3723.71445
557.567	3635.37397
557.772	3698.47776
557.977	3551.20919
558.182	3744.74291
558.387	3637.47771
558.592	3673.2383
558.797	3639.58142
559.002	4024.23325
559.207	3816.22508
559.412	3902.39382
559.617	3578.56602
559.822	3933.91056
560.027	3540.6865
560.232	3818.32716
560.437	3639.58142
560.642	3734.22892
560.847	3721.6115
561.051	3713.1995
561.256	3692.16815
561.461	4076.729
561.666	3957.01995
561.871	4001.13104
562.076	3816.22508
562.281	3891.88723
562.485	3904.49508
562.69	3919.20331
562.895	3841.44866
563.1	4059.93177
563.305	3879.27867
563.509	4068.33055
563.714	3999.03072
563.919	4181.68145
564.123	4122.91453
564.328	4322.23478
564.533	4087.2266
564.737	4200.56731
564.942	4135.50883
565.147	4345.30149
565.351	3965.42276
565.556	4395.61977
565.761	4068.33055
565.965	4160.69516
566.17	4118.71626
566.374	4330.62297
566.579	4225.74578
566.784	4355.7855
566.988	4202.66563
567.193	4368.36559
567.397	4267.70309
567.602	4502.50433
567.806	4125.01363
568.011	4385.13782
568.215	4192.17381
568.42	4458.49995
568.624	4351.59196
568.828	4552.78312
569.033	4368.36559
569.237	4517.1703
569.442	4424.9663
569.646	4362.07564
569.85	4464.78689
570.055	4703.5425
570.259	4376.75188
570.463	4770.50926
570.668	4399.81239
570.872	4544.40421
571.076	4525.55036
571.281	4638.64644
571.485	4460.59562
571.689	4757.95476
571.893	4307.5546
572.098	4705.63556
572.302	4542.30943
572.506	4707.7286
572.71	4395.61977
572.914	4695.17003
573.119	4586.29522
573.323	4741.21415
573.527	4657.48946
573.731	4845.8191
573.935	4745.39944
574.139	4912.73636
574.343	4506.69472
574.547	4778.87848
574.751	4676.33066
574.955	4797.70788
575.159	4665.86355
575.364	4923.19006
575.568	4699.35631
575.772	4862.55061
575.976	4632.36503
576.18	4739.12148
576.383	4638.64644
576.587	4816.53544
576.791	4889.73619
576.995	5079.92653
577.199	4801.89194
577.403	4900.19116
577.607	4854.18504
577.811	4839.54441
578.015	4862.55061
578.219	4954.54772
578.422	5031.87448
578.626	5215.65942
578.83	4946.18619
579.034	5092.45984
579.238	4981.72018
579.442	5288.70557
579.645	5155.11381
579.849	5282.44559
580.053	5238.61986
580.257	5205.22192
580.46	5130.05473
580.664	5280.35889
580.868	5153.02568
581.071	5138.40813
