Data from mixed_try1_USB4F045381__31__00256.txt Node

Date: Thu Apr 03 20:26:46 EDT 2025
User: mmckonesweet
Spectrometer: USB4F04538
Trigger mode: 4
Integration Time (sec): 2.700000E-3
Scans to average: 1
Electric dark correction enabled: true
Nonlinearity correction enabled: true
Boxcar width: 0
XAxis mode: Wavelengths
Number of Pixels in Spectrum: 3648
>>>>>Begin Spectral Data<<<<<
345.52	3.51233
345.736	3.51233
345.952	3.51233
346.168	-28.09618
346.384	-28.09618
346.6	-13.34623
346.816	-36.52418
347.032	58.31314
347.248	58.31314
347.464	28.80304
347.68	-55.48573
347.896	-17.56062
348.112	33.01848
348.328	16.15725
348.544	-34.41722
348.76	-23.88203
348.975	-13.34623
349.191	-78.65817
349.407	37.23403
349.623	-23.88203
349.839	-49.16544
350.055	-30.20322
350.27	66.74543
350.486	-2.80981
350.702	-17.56062
350.918	18.26482
351.133	64.63732
351.349	-2.80981
351.565	-4.91714
351.781	-9.13173
351.996	-38.63112
352.212	-36.52418
352.428	3.51233
352.644	-4.91714
352.859	-59.69913
353.075	-63.91243
353.291	-25.98912
353.506	-36.52418
353.722	-42.84492
353.938	-53.37899
354.153	14.04971
354.369	9.83468
354.584	37.23403
354.8	-38.63112
355.016	-30.20322
355.231	-44.95179
355.447	-4.91714
355.662	14.04971
355.878	-49.16544
356.093	-28.09618
356.309	-47.05863
356.524	47.77329
356.74	-11.23899
356.955	-55.48573
357.171	-17.56062
357.386	-15.45344
357.602	-17.56062
357.817	-9.13173
358.033	-34.41722
358.248	16.15725
358.464	5.61975
358.679	58.31314
358.895	-4.91714
359.11	-72.33872
359.325	-11.23899
359.541	-51.27223
359.756	-2.80981
359.972	-28.09618
360.187	-13.34623
360.402	35.12624
360.618	-21.77492
360.833	-34.41722
361.048	70.96171
361.264	-30.20322
361.479	-15.45344
361.694	56.20513
361.909	-63.91243
362.125	47.77329
362.34	-21.77492
362.555	-72.33872
362.77	24.58768
362.986	11.94218
363.201	-13.34623
363.416	33.01848
363.631	-28.09618
363.847	11.94218
364.062	-38.63112
364.277	-38.63112
364.492	-30.20322
364.707	28.80304
364.922	-42.84492
365.138	-42.84492
365.353	58.31314
365.568	-2.80981
365.783	54.09713
365.998	43.55752
366.213	5.61975
366.428	-66.01904
366.643	-59.69913
366.858	-38.63112
367.073	-34.41722
367.288	-28.09618
367.503	54.09713
367.718	11.94218
367.933	-11.23899
368.148	58.31314
368.363	16.15725
368.578	-4.91714
368.793	-28.09618
369.008	-42.84492
369.223	-80.7646
369.438	5.61975
369.653	16.15725
369.868	11.94218
370.083	-21.77492
370.298	11.94218
370.513	14.04971
370.728	35.12624
370.943	1.40492
371.157	-44.95179
371.372	-13.34623
371.587	-42.84492
371.802	87.82774
372.017	-2.80981
372.232	79.39455
372.446	-9.13173
372.661	-21.77492
372.876	-4.91714
373.091	-4.91714
373.306	-21.77492
373.52	5.61975
373.735	24.58768
373.95	-13.34623
374.165	-47.05863
374.379	11.94218
374.594	14.04971
374.809	11.94218
375.023	-34.41722
375.238	-15.45344
375.453	11.94218
375.667	-72.33872
375.882	22.48004
376.097	22.48004
376.311	-25.98912
376.526	18.26482
376.741	-21.77492
376.955	-15.45344
377.17	-61.80579
377.384	45.6654
377.599	24.58768
377.813	-4.91714
378.028	-91.29638
378.242	30.91075
378.457	-38.63112
378.672	45.6654
378.886	-25.98912
379.101	11.94218
379.315	-76.55171
379.53	-0.70246
379.744	11.94218
379.958	-38.63112
380.173	7.72721
380.387	-30.20322
380.602	-4.91714
380.816	41.44967
381.031	3.51233
381.245	-25.98912
381.459	-44.95179
381.674	1.40492
381.888	-30.20322
382.103	-11.23899
382.317	20.37242
382.531	-36.52418
382.746	26.69535
382.96	28.80304
383.174	45.6654
383.388	20.37242
383.603	33.01848
383.817	-44.95179
384.031	-38.63112
384.246	87.82774
384.46	7.72721
384.674	1.40492
384.888	-19.66778
385.103	-36.52418
385.317	3.51233
385.531	-19.66778
385.745	-21.77492
385.959	-11.23899
386.174	-28.09618
386.388	11.94218
386.602	-17.56062
386.816	-9.13173
387.03	-55.48573
387.244	-70.23219
387.458	-63.91243
387.672	-0.70246
387.887	-21.77492
388.101	-49.16544
388.315	7.72721
388.529	-51.27223
388.743	7.72721
388.957	-30.20322
389.171	3.51233
389.385	-13.34623
389.599	-15.45344
389.813	-36.52418
390.027	33.01848
390.241	11.94218
390.455	30.91075
390.669	-11.23899
390.883	-47.05863
391.097	-49.16544
391.311	3.51233
391.525	5.61975
391.738	-21.77492
391.952	54.09713
392.166	-28.09618
392.38	26.69535
392.594	-51.27223
392.808	-2.80981
393.022	-89.19007
393.236	1.40492
393.449	-9.13173
393.663	49.88122
393.877	-36.52418
394.091	-21.77492
394.305	39.34183
394.518	20.37242
394.732	11.94218
394.946	-42.84492
395.16	-47.05863
395.373	-21.77492
395.587	28.80304
395.801	3.51233
396.015	-36.52418
396.228	22.48004
396.442	24.58768
396.656	-21.77492
396.869	-4.91714
397.083	-103.93364
397.297	-11.23899
397.51	41.44967
397.724	-36.52418
397.938	-23.88203
398.151	-0.70246
398.365	30.91075
398.578	-13.34623
398.792	28.80304
399.005	-19.66778
399.219	41.44967
399.433	14.04971
399.646	11.94218
399.86	43.55752
400.073	62.52924
400.287	-15.45344
400.5	-21.77492
400.714	-76.55171
400.927	-17.56062
401.141	28.80304
401.354	9.83468
401.567	47.77329
401.781	70.96171
401.994	-66.01904
402.208	11.94218
402.421	51.98916
402.635	-28.09618
402.848	-25.98912
403.061	54.09713
403.275	9.83468
403.488	-40.73804
403.701	-13.34623
403.915	-25.98912
404.128	-25.98912
404.341	-63.91243
404.555	28.80304
404.768	-87.08375
404.981	41.44967
405.195	-7.02445
405.408	-36.52418
405.621	-17.56062
405.834	45.6654
406.048	58.31314
406.261	-2.80981
406.474	28.80304
406.687	-21.77492
406.9	-13.34623
407.114	49.88122
407.327	3.51233
407.54	-19.66778
407.753	-28.09618
407.966	14.04971
408.179	-25.98912
408.392	24.58768
408.605	14.04971
408.819	-23.88203
409.032	-0.70246
409.245	-38.63112
409.458	9.83468
409.671	-34.41722
409.884	22.48004
410.097	37.23403
410.31	-59.69913
410.523	-9.13173
410.736	-40.73804
410.949	-47.05863
411.162	47.77329
411.375	-28.09618
411.588	56.20513
411.801	11.94218
412.014	14.04971
412.227	-11.23899
412.44	28.80304
412.653	-30.20322
412.865	11.94218
413.078	11.94218
413.291	64.63732
413.504	-19.66778
413.717	-61.80579
413.93	70.96171
414.143	28.80304
414.356	3.51233
414.568	-17.56062
414.781	77.2863
414.994	41.44967
415.207	-61.80579
415.42	37.23403
415.632	-61.80579
415.845	-30.20322
416.058	-11.23899
416.271	-21.77492
416.483	56.20513
416.696	-7.02445
416.909	16.15725
417.121	37.23403
417.334	-30.20322
417.547	-47.05863
417.759	60.42118
417.972	33.01848
418.185	-74.44523
418.397	22.48004
418.61	-9.13173
418.823	-30.20322
419.035	35.12624
419.248	-30.20322
419.46	22.48004
419.673	-11.23899
419.885	-36.52418
420.098	45.6654
420.311	16.15725
420.523	-7.02445
420.736	-4.91714
420.948	41.44967
421.161	45.6654
421.373	-21.77492
421.586	-19.66778
421.798	-38.63112
422.01	43.55752
422.223	58.31314
422.435	-13.34623
422.648	22.48004
422.86	58.31314
423.073	-42.84492
423.285	-55.48573
423.497	11.94218
423.71	20.37242
423.922	28.80304
424.134	-55.48573
424.347	20.37242
424.559	-78.65817
424.771	-34.41722
424.984	37.23403
425.196	-11.23899
425.408	28.80304
425.621	3.51233
425.833	16.15725
426.045	37.23403
426.257	-55.48573
426.47	-4.91714
426.682	26.69535
426.894	-4.91714
427.106	62.52924
427.318	-21.77492
427.531	43.55752
427.743	30.91075
427.955	-19.66778
428.167	-51.27223
428.379	-38.63112
428.591	-11.23899
428.804	-59.69913
429.016	-4.91714
429.228	3.51233
429.44	16.15725
429.652	-17.56062
429.864	56.20513
430.076	-11.23899
430.288	-34.41722
430.5	-21.77492
430.712	33.01848
430.924	73.06989
431.136	-34.41722
431.348	5.61975
431.56	-40.73804
431.772	7.72721
431.984	20.37242
432.196	-4.91714
432.408	20.37242
432.62	-49.16544
432.832	11.94218
433.044	-7.02445
433.256	28.80304
433.468	3.51233
433.679	-30.20322
433.891	47.77329
434.103	58.31314
434.315	-11.23899
434.527	77.2863
434.739	-19.66778
434.95	-19.66778
435.162	-51.27223
435.374	-2.80981
435.586	49.88122
435.798	121.56407
436.009	-59.69913
436.221	24.58768
436.433	62.52924
436.645	66.74543
436.856	20.37242
437.068	79.39455
437.28	20.37242
437.491	-32.31023
437.703	54.09713
437.915	96.26129
438.126	-21.77492
438.338	-0.70246
438.55	16.15725
438.761	30.91075
438.973	11.94218
439.184	45.6654
439.396	3.51233
439.608	35.12624
439.819	11.94218
440.031	20.37242
440.242	-28.09618
440.454	24.58768
440.665	30.91075
440.877	16.15725
441.088	30.91075
441.3	-17.56062
441.511	62.52924
441.723	-11.23899
441.934	24.58768
442.146	-44.95179
442.357	3.51233
442.569	56.20513
442.78	3.51233
442.991	-68.12563
443.203	7.72721
443.414	49.88122
443.626	-13.34623
443.837	-17.56062
444.048	-11.23899
444.26	3.51233
444.471	-13.34623
444.682	30.91075
444.894	35.12624
445.105	89.9361
445.316	45.6654
445.528	7.72721
445.739	45.6654
445.95	39.34183
446.161	5.61975
446.373	45.6654
446.584	30.91075
446.795	51.98916
447.006	43.55752
447.217	121.56407
447.429	54.09713
447.64	30.91075
447.851	-38.63112
448.062	87.82774
448.273	-13.34623
448.484	37.23403
448.695	-13.34623
448.907	102.58669
449.118	-13.34623
449.329	5.61975
449.54	62.52924
449.751	41.44967
449.962	87.82774
450.173	92.04447
450.384	-4.91714
450.595	16.15725
450.806	-9.13173
451.017	14.04971
451.228	62.52924
451.439	-11.23899
451.65	-28.09618
451.861	75.17808
452.072	58.31314
452.283	70.96171
452.494	-4.91714
452.705	11.94218
452.915	37.23403
453.126	104.6952
453.337	121.56407
453.548	47.77329
453.759	3.51233
453.97	73.06989
454.181	-44.95179
454.391	14.04971
454.602	24.58768
454.813	16.15725
455.024	113.12946
455.235	64.63732
455.445	39.34183
455.656	70.96171
455.867	81.50281
456.078	16.15725
456.288	41.44967
456.499	5.61975
456.71	58.31314
456.921	106.80373
457.131	-21.77492
457.342	56.20513
457.553	64.63732
457.763	-11.23899
457.974	47.77329
458.184	-47.05863
458.395	-4.91714
458.606	37.23403
458.816	24.58768
459.027	56.20513
459.237	45.6654
459.448	66.74543
459.659	7.72721
459.869	-19.66778
460.08	-25.98912
460.29	54.09713
460.501	26.69535
460.711	41.44967
460.922	62.52924
461.132	73.06989
461.343	108.91229
461.553	85.71941
461.764	73.06989
461.974	22.48004
462.184	64.63732
462.395	24.58768
462.605	62.52924
462.816	73.06989
463.026	33.01848
463.236	30.91075
463.447	70.96171
463.657	51.98916
463.867	54.09713
464.078	70.96171
464.288	47.77329
464.498	33.01848
464.709	9.83468
464.919	89.9361
465.129	104.6952
465.339	58.31314
465.55	62.52924
465.76	58.31314
465.97	28.80304
466.18	16.15725
466.391	92.04447
466.601	134.21663
466.811	121.56407
467.021	77.2863
467.231	138.43433
467.441	58.31314
467.651	155.30595
467.862	163.74226
468.072	62.52924
468.282	104.6952
468.492	121.56407
468.702	87.82774
468.912	108.91229
469.122	104.6952
469.332	180.61589
469.542	104.6952
469.752	104.6952
469.962	100.4782
470.172	62.52924
470.382	214.36707
470.592	163.74226
470.802	45.6654
471.012	70.96171
471.222	140.5432
471.432	178.50662
471.642	81.50281
471.852	132.10782
472.062	159.52406
472.272	104.6952
472.482	233.35436
472.691	146.86997
472.901	159.52406
473.111	180.61589
473.321	201.70978
473.531	148.97893
473.741	199.6003
473.95	155.30595
474.16	193.27198
474.37	269.22351
474.58	231.24458
474.79	243.90353
474.999	148.97893
475.209	267.11341
475.419	277.66411
475.628	302.98769
475.838	191.16258
476.048	349.42099
476.258	324.09267
476.467	362.08609
476.677	307.20854
476.886	366.30793
477.096	269.22351
477.306	362.08609
477.515	338.86722
477.725	372.64081
477.935	336.75651
478.144	410.64126
478.354	281.88452
478.563	425.42065
478.773	446.5354
478.982	547.90718
479.192	442.31232
479.401	509.88883
479.611	516.2249
479.82	484.54585
480.03	501.44093
480.239	638.7464
480.449	509.88883
480.658	571.14282
480.868	590.155
481.077	611.28088
481.287	509.88883
481.496	636.6336
481.705	647.19775
481.915	733.83477
482.124	714.81528
482.333	695.79667
482.543	776.10334
482.752	854.31041
482.961	773.98982
483.171	828.94458
483.38	761.30888
483.589	864.87988
483.799	960.01411
484.008	962.12838
484.217	864.87988
484.426	1110.1424
484.636	1008.64392
484.845	1042.47532
485.054	1088.99587
485.263	1063.6207
485.472	1000.18632
485.682	1067.84985
485.891	1040.36082
486.1	1211.65179
486.309	1270.86929
486.518	1139.74833
486.727	1163.01073
486.936	1393.53948
487.146	1179.92914
487.355	1433.72538
487.564	1258.17964
487.773	1550.05281
487.982	1279.3291
488.191	1410.45983
488.4	1374.50414
488.609	1406.22974
488.818	1562.74293
489.027	1660.03172
489.236	1437.95548
489.445	1478.14147
489.654	1569.08797
489.863	1693.87013
490.072	1558.51289
490.281	1907.45318
490.49	1556.39787
490.698	1748.85587
490.907	1778.46257
491.116	1778.46257
491.325	1636.76741
491.534	1888.42293
491.743	1761.54455
491.952	1922.25418
492.16	1867.27771
492.369	1913.7965
492.578	2008.93996
492.787	1975.11259
492.996	2011.05412
493.204	2112.52545
493.413	2066.0198
493.622	2213.97918
493.831	1956.08399
494.039	2104.07014
494.248	2260.47228
494.457	2220.3194
494.665	2336.54231
494.874	2573.1192
495.083	2290.05653
495.291	2433.72425
495.5	2387.24864
495.709	2518.21195
495.917	2370.34718
496.126	2499.20377
496.335	2431.61184
496.543	2615.35008
496.752	2467.52145
496.96	2600.56982
497.169	2395.69913
497.377	2505.53993
497.586	2554.11374
497.794	2847.52862
498.003	2615.35008
498.211	2685.02025
498.42	2887.61552
498.628	2826.4282
498.837	2701.90791
499.045	2748.34466
499.254	2809.54686
499.462	2845.41864
499.671	2731.4593
499.879	2921.3689
500.087	2910.82136
500.296	3092.18666
500.504	2919.25942
500.713	3250.25908
500.921	3064.77825
501.129	3134.34823
501.338	3039.47583
501.546	3427.18786
501.754	3163.85751
501.962	3132.2403
502.171	3081.64528
502.379	3448.24258
502.587	3222.86647
502.795	3473.50587
503.004	3338.73874
503.212	3568.21989
503.42	3395.60245
503.628	3505.08133
503.837	3349.27002
504.045	3458.76926
504.253	3484.03148
504.461	3378.75527
504.669	3494.55663
504.877	3635.54928
505.085	3385.0731
505.294	3669.20674
505.502	3570.32423
505.71	3778.5596
505.918	3723.8897
506.126	3791.17386
506.334	3547.17554
506.542	3919.37841
506.75	3625.03033
506.958	3702.85933
507.166	3965.59781
507.374	3833.21628
507.582	3629.23797
507.79	3898.36635
507.998	3854.23452
508.206	3850.03103
508.414	3835.31819
508.622	4087.40155
508.83	3782.76443
509.037	4219.62629
509.245	3833.21628
509.453	3957.19501
509.661	4131.48573
509.869	4265.78023
510.077	3955.09426
510.285	4127.28763
510.492	4173.46207
510.7	4165.06748
510.908	4251.09601
511.116	4276.26832
511.324	3965.59781
511.531	4358.05696
511.739	4282.56092
511.947	4324.50661
512.155	4261.58485
512.362	4511.05961
512.57	4295.14553
512.778	4666.038
512.985	4307.72937
513.193	4259.48712
513.401	4387.40896
513.608	4435.62083
513.816	4437.71674
514.024	4609.50598
514.231	4450.29171
514.439	4515.24981
514.646	4494.2979
514.854	4613.6941
515.061	4542.48399
515.269	4921.27359
515.477	4563.43081
515.684	4630.44567
515.892	4655.57034
516.099	5019.51129
516.307	4871.09009
516.514	4940.089
516.722	4584.37541
516.929	4848.08491
517.136	4705.80998
517.344	4937.99849
517.551	4693.25129
517.759	4952.63157
517.966	4971.44388
518.173	4894.0925
518.381	4927.5456
518.588	4971.44388
518.796	4686.97164
519.003	5078.01165
519.21	4937.99849
519.418	5370.23989
519.625	5140.67044
519.832	5180.34353
520.039	5155.28782
520.247	5178.25568
520.454	5278.44605
520.661	5451.56464
520.868	5182.43135
521.076	5439.05547
521.283	5297.22575
521.49	5399.4375
521.697	5372.32559
521.904	5453.64942
522.112	5222.09559
522.319	5557.85842
522.526	5305.57168
522.733	5480.74943
522.94	5391.0958
523.147	5499.50863
523.354	5487.00271
523.561	5549.52387
523.768	5551.60754
523.975	5838.9283
524.183	5657.84364
524.39	5747.36758
524.597	5818.12305
524.804	5884.69152
525.011	5612.02383
525.218	5749.44901
525.425	5786.91077
525.632	5965.78918
525.838	5899.25015
526.045	5805.63878
526.252	5699.48811
526.459	5913.80763
526.666	5797.31545
526.873	5976.18372
527.08	6113.33648
527.287	6075.94135
527.494	5899.25015
527.701	6293.97237
527.907	6063.47461
528.114	6192.25675
528.321	6136.18531
528.528	6086.32965
528.735	6327.17346
528.941	6198.48586
529.148	6102.94971
529.355	6283.5958
529.562	6244.1595
529.768	6509.67277
529.975	6229.62821
530.182	6445.4038
530.388	6393.55771
530.595	6343.77176
530.802	6403.92809
531.008	6604.99859
531.215	6430.88836
531.422	6654.7144
531.628	6551.12479
531.835	6611.21379
532.042	6667.14129
532.248	6791.36466
532.455	6418.44565
532.661	6689.92175
532.868	6818.26887
533.074	6778.94603
533.281	6575.99156
533.487	6729.26328
533.694	6696.13412
533.9	7008.55822
534.107	6807.92155
534.313	7124.29317
534.52	6911.36913
534.726	7004.42353
534.933	6969.27502
535.139	7047.83331
535.345	7004.42353
535.552	7169.74131
535.758	6971.34276
535.965	7097.43238
536.171	6963.07166
536.377	7089.16676
536.584	7047.83331
536.79	7223.43889
536.996	7101.56505
537.203	7446.33125
537.409	6956.8681
537.615	7134.62324
537.821	7291.57201
538.028	7341.10833
538.234	7204.85296
538.44	7332.85316
538.646	7229.63381
538.853	7607.15166
539.059	7223.43889
539.265	7355.55405
539.471	7479.33073
539.677	7646.30614
539.883	7237.89338
540.09	7462.83168
540.296	7266.79911
540.502	7477.26842
540.708	7351.42681
540.914	7724.59216
541.12	7572.11218
541.326	7743.12913
541.532	7644.24557
541.738	7938.69408
541.944	7625.69948
542.15	8099.12455
542.356	7724.59216
542.562	8000.41274
542.768	7699.87356
542.974	7967.49841
543.18	7881.07332
543.386	7932.5212
543.592	7959.26901
543.798	8179.29374
544.004	7815.20119
544.21	8051.83096
544.415	8029.20851
544.621	8095.01248
544.827	7934.57884
545.033	8286.13896
545.239	8358.0241
545.445	8374.45164
545.651	8105.29249
545.856	8187.5145
546.062	8292.30148
546.268	8257.37819
546.474	8245.05096
546.679	8284.08475
546.885	8086.78812
547.091	8275.8677
547.297	8203.95507
547.502	8345.70263
547.708	8230.6683
547.914	8166.96199
548.119	8503.77543
548.325	8374.45164
548.531	8438.09668
548.736	8427.8326
548.942	8423.72684
549.147	8452.46558
549.353	8505.82758
549.559	8544.81475
549.764	8575.58928
549.97	8472.99095
550.175	8608.41079
550.381	8745.79908
550.586	8491.46215
550.792	8823.68415
550.997	8743.74912
551.203	8641.2275
551.408	8647.3801
551.614	8909.73729
551.819	8866.71468
552.025	8653.53254
552.23	8899.49453
552.435	9155.43173
552.641	9046.94764
552.846	8870.81241
553.052	9071.51433
553.257	9083.79673
553.462	9106.31286
553.668	9188.17218
553.873	9008.04526
554.078	9216.81651
554.283	8995.75899
554.489	9034.66336
554.694	9040.80558
554.899	9171.8025
555.105	9143.15294
555.31	9126.78026
555.515	9034.66336
555.72	9267.95887
555.925	8954.80017
556.131	9276.14068
556.336	9018.28334
556.541	9582.76917
556.746	9059.2313
556.951	9386.56907
557.156	9227.04582
557.361	9427.45633
557.567	9454.02956
557.772	9472.42482
557.977	9642.00918
558.182	9335.4508
558.387	9456.07354
558.592	9727.78194
558.797	9637.92408
559.002	9737.99118
559.207	9525.55937
559.412	9746.1583
559.617	9503.08069
559.822	9552.1226
560.027	9668.5608
560.232	9613.4122
560.437	9466.29321
560.642	9586.85511
560.847	9627.71107
561.051	9727.78194
561.256	9496.9498
561.461	9848.22689
561.666	9578.68317
561.871	9727.78194
562.076	9897.20656
562.281	9766.57503
562.485	9782.90733
562.69	9586.85511
562.895	9664.4761
563.1	9780.86584
563.305	10060.41145
563.509	10003.30024
563.714	9833.93955
563.919	10019.61887
564.123	9956.37903
564.328	10158.29061
564.533	9848.22689
564.737	10011.45967
564.942	9882.92171
565.147	10270.40459
565.351	9976.7805
565.556	10133.82384
565.761	9940.05682
565.965	10186.83264
566.17	10007.37998
566.374	10186.83264
566.579	10288.7466
566.784	10364.14127
566.988	10272.44265
567.193	10427.29586
567.397	10439.51788
567.602	10445.62872
567.806	9978.82056
568.011	10109.35506
568.215	10396.73875
568.42	10329.50274
568.624	10358.02886
568.828	10372.29095
569.033	10429.33289
569.237	10677.756
569.442	10400.8132
569.646	10358.02886
569.85	10186.83264
570.055	10305.0497
570.259	10378.40308
570.463	10500.62103
570.668	10323.38966
570.872	10305.0497
571.076	10702.18109
571.281	10516.91327
571.485	10417.11048
571.689	10518.94974
571.893	10504.69417
572.098	10667.57836
572.302	10496.54785
572.506	10761.20123
572.71	10614.64972
572.914	10773.41104
573.119	10372.29095
573.323	10549.4953
573.527	10457.85004
573.731	10628.90056
573.935	10785.62042
574.139	10838.52286
574.343	10492.47461
574.547	10753.06112
574.751	10940.23631
574.955	10962.60945
575.159	10575.96582
575.364	10582.07411
