Data from mixed_try1_USB4F045381__1__00226.txt Node

Date: Thu Apr 03 20:22:45 EDT 2025
User: mmckonesweet
Spectrometer: USB4F04538
Trigger mode: 4
Integration Time (sec): 2.700000E-3
Scans to average: 1
Electric dark correction enabled: true
Nonlinearity correction enabled: true
Boxcar width: 0
XAxis mode: Wavelengths
Number of Pixels in Spectrum: 3648
>>>>>Begin Spectral Data<<<<<
345.52	-56.36353
345.736	-56.36353
345.952	-56.36353
346.168	-79.53586
346.384	-14.22423
346.6	-12.11701
346.816	34.24801
347.032	11.06405
347.248	19.49425
347.464	-35.29512
347.68	-47.93647
347.896	44.78711
348.112	2.63424
348.328	19.49425
348.544	-20.54576
348.76	-31.08114
348.975	15.2791
349.191	-87.96139
349.407	-50.04327
349.623	11.06405
349.839	-20.54576
350.055	-26.86706
350.27	4.74166
350.486	-37.40208
350.702	-31.08114
350.918	-43.72279
351.133	-73.21644
351.349	-33.18815
351.565	-39.50901
351.781	-5.79519
351.996	-31.08114
352.212	-56.36353
352.428	-45.82964
352.644	-52.15005
352.859	-22.65289
353.075	59.54283
353.291	-41.61591
353.506	-31.08114
353.722	2.63424
353.938	-5.79519
354.153	6.8491
354.369	15.2791
354.584	-14.22423
354.8	-14.22423
355.016	-7.90249
355.231	-28.97412
355.447	-28.97412
355.662	30.03253
355.878	-5.79519
356.093	6.8491
356.309	4.74166
356.524	-24.75999
356.74	-64.79019
356.955	-62.68356
357.171	-10.00976
357.386	15.2791
357.602	-35.29512
357.817	-62.68356
358.033	6.8491
358.248	0.52684
358.464	42.67924
358.679	-39.50901
358.895	2.63424
359.11	40.5714
359.325	-14.22423
359.541	-73.21644
359.756	-22.65289
359.972	-20.54576
360.187	-79.53586
360.402	-10.00976
360.618	-10.00976
360.833	-28.97412
361.048	-73.21644
361.264	-39.50901
361.479	-33.18815
361.694	-64.79019
361.909	-10.00976
362.125	6.8491
362.34	-92.17399
362.555	80.62436
362.77	-5.79519
362.986	-18.43861
363.201	6.8491
363.416	-31.08114
363.631	40.5714
363.847	78.51611
364.062	-10.00976
364.277	-37.40208
364.492	-37.40208
364.707	-41.61591
364.922	-60.57691
365.138	67.97517
365.353	2.63424
365.568	-22.65289
365.783	-5.79519
365.998	-62.68356
366.213	15.2791
366.428	15.2791
366.643	25.81715
366.858	-28.97412
367.073	6.8491
367.288	-41.61591
367.503	72.19148
367.718	-24.75999
367.933	11.06405
368.148	2.63424
368.363	13.17157
368.578	-37.40208
368.793	32.14026
369.008	-64.79019
369.223	-56.36353
369.438	-14.22423
369.653	-31.08114
369.868	-1.58052
370.083	44.78711
370.298	-47.93647
370.513	-47.93647
370.728	-5.79519
370.943	-56.36353
371.157	-111.12944
371.372	21.60186
371.587	-39.50901
371.802	2.63424
372.017	74.29967
372.232	17.38667
372.446	-18.43861
372.661	-7.90249
372.876	17.38667
373.091	6.8491
373.306	-1.58052
373.52	-14.22423
373.735	-28.97412
373.95	-3.68787
374.165	-12.11701
374.379	27.92483
374.594	2.63424
374.809	49.00291
375.023	-22.65289
375.238	-3.68787
375.453	6.8491
375.667	19.49425
375.882	-81.64228
376.097	-18.43861
376.311	-35.29512
376.526	-73.21644
376.741	-5.79519
376.955	-14.22423
377.17	23.70949
377.384	-43.72279
377.599	-33.18815
377.813	30.03253
378.028	-14.22423
378.242	-14.22423
378.457	2.63424
378.672	-47.93647
378.886	27.92483
379.101	-47.93647
379.315	-35.29512
379.53	38.46358
379.744	-16.33143
379.958	-54.2568
380.173	-18.43861
380.387	19.49425
380.602	32.14026
380.816	-18.43861
381.031	21.60186
381.245	25.81715
381.459	40.5714
381.674	49.00291
381.888	-26.86706
382.103	-22.65289
382.317	-54.2568
382.531	30.03253
382.746	-5.79519
382.96	-22.65289
383.174	11.06405
383.388	-62.68356
383.603	-45.82964
383.817	-1.58052
384.031	27.92483
384.246	4.74166
384.46	36.35578
384.674	-33.18815
384.888	-20.54576
385.103	-18.43861
385.317	-50.04327
385.531	53.21881
385.745	-35.29512
385.959	-16.33143
386.174	-31.08114
386.388	-22.65289
386.602	72.19148
386.816	-54.2568
387.03	-77.42941
387.244	61.65088
387.458	-52.15005
387.672	6.8491
387.887	-39.50901
388.101	36.35578
388.315	-33.18815
388.529	-10.00976
388.743	13.17157
388.957	-14.22423
389.171	-73.21644
389.385	-39.50901
389.599	32.14026
389.813	-22.65289
390.027	-5.79519
390.241	-12.11701
390.455	63.75895
390.669	30.03253
390.883	-1.58052
391.097	36.35578
391.311	-73.21644
391.525	2.63424
391.738	72.19148
391.952	36.35578
392.166	-1.58052
392.38	30.03253
392.594	-35.29512
392.808	-56.36353
393.022	19.49425
393.236	-33.18815
393.449	82.73264
393.663	2.63424
393.877	11.06405
394.091	105.92518
394.305	49.00291
394.518	30.03253
394.732	19.49425
394.946	2.63424
395.16	70.08331
395.373	19.49425
395.587	11.06405
395.801	-18.43861
396.015	2.63424
396.228	27.92483
396.442	-18.43861
396.656	51.11085
396.869	-26.86706
397.083	-87.96139
397.297	-22.65289
397.51	11.06405
397.724	21.60186
397.938	-45.82964
398.151	-5.79519
398.365	25.81715
398.578	-14.22423
398.792	-43.72279
399.005	4.74166
399.219	13.17157
399.433	-14.22423
399.646	2.63424
399.86	38.46358
400.073	78.51611
400.287	65.86705
400.5	-12.11701
400.714	-64.79019
400.927	-5.79519
401.141	97.49122
401.354	2.63424
401.567	2.63424
401.781	17.38667
401.994	15.2791
402.208	-62.68356
402.421	-35.29512
402.635	-5.79519
402.848	-1.58052
403.061	-1.58052
403.275	15.2791
403.488	44.78711
403.701	-12.11701
403.915	-35.29512
404.128	-98.49271
404.341	17.38667
404.555	6.8491
404.768	17.38667
404.981	-18.43861
405.195	49.00291
405.408	-47.93647
405.621	40.5714
405.834	-31.08114
406.048	61.65088
406.261	36.35578
406.474	36.35578
406.687	-1.58052
406.9	46.895
407.114	-52.15005
407.327	-1.58052
407.54	2.63424
407.753	70.08331
407.966	40.5714
408.179	-22.65289
408.392	36.35578
408.605	53.21881
408.819	15.2791
409.032	27.92483
409.245	-37.40208
409.458	-28.97412
409.671	36.35578
409.884	78.51611
410.097	11.06405
410.31	32.14026
410.523	-45.82964
410.736	65.86705
410.949	-28.97412
411.162	36.35578
411.375	27.92483
411.588	59.54283
411.801	84.84094
412.014	150.20917
412.227	19.49425
412.44	11.06405
412.653	-10.00976
412.865	93.27437
413.078	19.49425
413.291	53.21881
413.504	-41.61591
413.717	30.03253
413.93	-3.68787
414.143	70.08331
414.356	36.35578
414.568	51.11085
414.781	21.60186
414.994	55.32679
415.207	23.70949
415.42	15.2791
415.632	4.74166
415.845	-20.54576
416.058	-3.68787
416.271	38.46358
416.483	-31.08114
416.696	36.35578
416.909	129.12037
417.121	63.75895
417.334	36.35578
417.547	44.78711
417.759	27.92483
417.972	-5.79519
418.185	-1.58052
418.397	93.27437
418.61	82.73264
418.823	124.90287
419.035	99.59967
419.248	55.32679
419.46	108.03372
419.673	70.08331
419.885	135.44678
420.098	13.17157
420.311	36.35578
420.523	70.08331
420.736	95.38278
420.948	145.99124
421.161	23.70949
421.373	53.21881
421.586	40.5714
421.798	44.78711
422.01	70.08331
422.223	40.5714
422.435	32.14026
422.648	70.08331
422.86	53.21881
423.073	55.32679
423.285	38.46358
423.497	95.38278
423.71	25.81715
423.922	70.08331
424.134	97.49122
424.347	89.05761
424.559	103.81665
424.771	-14.22423
424.984	38.46358
425.196	86.94927
425.408	-7.90249
425.621	89.05761
425.833	78.51611
426.045	70.08331
426.257	120.68545
426.47	19.49425
426.682	91.16598
426.894	89.05761
427.106	99.59967
427.318	120.68545
427.531	152.31817
427.743	162.86346
427.955	112.25088
428.167	70.08331
428.379	154.42718
428.591	103.81665
428.804	53.21881
429.016	46.895
429.228	145.99124
429.44	103.81665
429.652	61.65088
429.864	194.50247
430.076	103.81665
430.288	103.81665
430.5	112.25088
430.712	150.20917
430.924	53.21881
431.136	154.42718
431.348	105.92518
431.56	154.42718
431.772	177.62776
431.984	148.10019
432.196	135.44678
432.408	114.35949
432.62	205.04983
432.832	80.62436
433.044	162.86346
433.256	181.84631
433.468	179.73703
433.679	209.26891
433.891	95.38278
434.103	150.20917
434.315	145.99124
434.527	181.84631
434.739	156.53622
434.95	173.40929
435.162	188.1743
435.374	230.36551
435.586	215.59768
435.798	162.86346
436.009	264.12413
436.221	198.72135
436.433	264.12413
436.645	224.03632
436.856	202.94032
437.068	251.46407
437.28	243.02442
437.491	251.46407
437.703	299.99796
437.915	369.65026
438.126	407.65029
438.338	236.69488
438.55	253.57403
438.761	209.26891
438.973	289.44628
439.184	287.336
439.396	335.87706
439.608	257.79401
439.819	354.87394
440.031	228.25576
440.242	331.65572
440.454	310.5501
440.665	333.76638
440.877	325.32385
441.088	378.09425
441.3	289.44628
441.511	333.76638
441.723	295.77723
441.934	323.21326
442.146	308.43963
442.357	352.76311
442.569	411.87285
442.78	428.76371
442.991	432.98659
443.203	356.9848
443.414	435.09805
443.626	375.98323
443.837	384.42741
444.048	424.5409
444.26	359.09566
444.471	409.76156
444.682	458.32515
444.894	426.6523
445.105	388.64961
445.316	485.77775
445.528	350.65229
445.739	401.31658
445.95	475.21875
446.161	447.76714
446.373	534.35382
446.584	466.77183
446.795	479.44231
447.006	555.47618
447.217	513.23285
447.429	513.23285
447.64	513.23285
447.851	483.66592
448.062	521.68107
448.273	589.27478
448.484	618.85129
448.695	540.69038
448.907	576.59991
449.118	547.02707
449.329	568.15026
449.54	566.03788
449.751	555.47618
449.962	487.88959
450.173	519.56899
450.384	652.65602
450.595	671.67253
450.806	773.10918
451.017	549.13933
451.228	724.50103
451.439	678.01157
451.65	616.7386
451.861	722.38775
452.072	705.48196
452.283	724.50103
452.494	796.35845
452.705	728.7276
452.915	825.95009
453.126	790.01762
453.337	809.04035
453.548	730.84091
453.759	857.65739
453.97	754.08795
454.181	948.56196
454.391	916.84943
454.602	897.82273
454.813	1014.10618
455.024	1009.87733
455.235	982.39044
455.445	1045.82331
455.656	967.59026
455.867	914.73532
456.078	961.24743
456.288	899.93677
456.499	948.56196
456.71	1162.12957
456.921	1024.67841
457.131	1231.91943
457.342	1028.90734
457.553	1176.93315
457.763	1041.59428
457.974	1236.14923
458.184	1164.24435
458.395	1379.96798
458.606	1219.23009
458.816	1445.53442
459.027	1308.05749
459.237	1390.54317
459.448	1492.06554
459.659	1468.79999
459.869	1382.08301
460.08	1405.34847
460.29	1473.03009
460.501	1887.54189
460.711	1534.36635
460.922	1451.87957
461.132	1633.77123
461.343	1578.78175
461.553	1629.54132
461.764	1790.26979
461.974	1709.90787
462.184	1652.80572
462.395	1777.58143
462.605	1946.7457
462.816	1811.41673
463.026	1946.7457
463.236	1923.48759
463.447	1982.68866
463.657	1895.99984
463.867	2202.53136
464.078	2261.705
464.288	2276.49731
464.498	2098.96167
464.709	2198.30441
464.919	2137.00991
465.129	2472.97803
465.339	2335.66194
465.55	2331.43614
465.76	2437.06889
465.97	2443.40603
466.18	2428.61923
466.391	2736.91196
466.601	2508.88397
466.811	2755.90761
467.021	2559.56911
467.231	2958.45813
467.441	2601.80153
467.651	2827.65909
467.862	3013.29252
468.072	3266.23679
468.282	3173.51759
468.492	2920.48995
468.702	3135.57784
468.912	3350.49864
469.122	3314.6907
469.332	3401.04244
469.542	3441.04908
469.752	3611.53032
469.962	3611.53032
470.172	3981.52722
470.382	3737.73364
470.592	3998.3306
470.802	3598.90624
471.012	4015.13268
471.222	3750.35017
471.432	4092.8251
471.642	3994.12988
471.852	4195.67114
472.062	4256.51531
472.272	4273.29675
472.482	4491.32954
472.691	4660.97871
472.901	4434.74753
473.111	4568.84171
473.321	4512.28176
473.531	4771.90415
473.741	4750.97968
473.95	5066.69603
474.16	4805.37859
474.37	5060.42863
474.58	5127.27018
474.79	5469.45824
474.999	5340.1685
475.209	5302.61587
475.419	5536.15307
475.628	5717.35763
475.838	5684.04605
476.048	5727.76626
476.258	5973.23866
476.467	6272.35386
476.677	6087.54158
476.886	6388.54515
477.096	6187.23871
477.306	6483.93331
477.515	6176.85612
477.725	6477.71384
477.935	6564.76739
478.144	6602.06356
478.354	6682.8463
478.563	7125.49837
478.773	6854.65241
478.982	7024.23478
479.192	7179.20832
479.401	7234.96815
479.611	7365.01198
479.82	7212.25313
480.03	7628.96234
480.239	7859.6329
480.449	7643.387
480.658	8090.04363
480.868	7972.81306
481.077	8055.08702
481.287	7812.28449
481.496	8394.12883
481.705	8190.76847
481.915	8398.23516
482.124	8414.65967
482.333	8457.76815
482.543	8465.97833
482.752	8763.39384
482.961	8730.59475
483.171	9064.5199
483.38	8605.50491
483.589	9301.87753
483.799	9310.05823
484.008	9440.91363
484.217	9547.18477
484.426	9485.87978
484.636	9424.56036
484.845	9963.68972
485.054	9514.49056
485.263	9931.0452
485.472	9720.80541
485.682	10128.89626
485.891	10122.77916
486.1	9677.92132
486.309	10516.06473
486.518	10442.74306
486.727	10344.95471
486.936	10509.95522
487.146	10363.29233
487.355	10613.80144
487.564	10945.49073
487.773	11175.25714
487.982	10990.23501
488.191	11226.0719
488.4	11116.30376
488.609	11114.27072
488.818	11406.92052
489.027	11333.77788
489.236	11532.85882
489.445	11687.18567
489.654	11703.42755
489.863	11946.98964
490.072	11995.68771
490.281	11894.22813
490.49	11841.46104
490.698	12125.52704
490.907	12009.89044
491.116	12565.54245
491.325	12149.86842
491.534	12547.29923
491.743	12494.59374
491.952	12320.22847
492.16	12721.60298
492.369	12693.23097
492.578	12972.84995
492.787	13189.58829
492.996	13090.3411
493.204	12928.27991
493.413	13307.05059
493.622	13588.4995
493.831	13268.57317
494.039	13406.27493
494.248	13491.3168
494.457	13762.59886
494.665	13665.4301
494.874	13772.72019
495.083	13861.78475
495.291	13416.39932
495.5	13967.03591
495.709	14011.56314
495.917	13932.62766
496.126	14039.89803
496.335	14230.13518
496.543	14282.75079
496.752	14199.77943
496.96	14329.29434
497.169	14456.77873
497.377	14677.33419
497.586	14606.51514
497.794	14976.78673
498.003	14887.7617
498.211	15134.60233
498.42	14564.02307
498.628	15053.67141
498.837	14946.43738
499.045	15001.06614
499.254	15427.97792
499.462	15454.28089
499.671	15707.19966
499.879	15486.6539
500.087	15440.11774
500.296	15727.43371
500.504	15563.5404
500.713	15648.52142
500.921	15606.03074
501.129	15662.68507
501.338	15397.62845
501.546	15974.29804
501.754	15646.49805
501.962	16283.91955
502.171	16111.90302
502.379	16198.92161
502.587	16249.51525
502.795	16415.47034
503.004	16004.6515
503.212	16447.85334
503.42	16506.54885
503.628	16721.10661
503.837	16510.59688
504.045	16644.18676
504.253	16791.95686
504.461	16822.32217
504.669	17000.47685
504.877	17130.05687
505.085	17014.64912
505.294	17152.32959
505.502	16656.33178
505.71	17360.90024
505.918	16911.397
506.126	17348.74963
506.334	17275.84823
506.542	17411.52898
506.75	17241.42391
506.958	17524.94441
507.166	17354.82492
507.374	17605.96154
507.582	18000.99657
507.79	17784.21771
507.998	17978.70904
508.206	17770.0373
508.414	17873.35561
508.622	17986.81355
508.83	18080.01945
509.037	18236.05515
509.245	18161.07425
509.453	18173.23297
509.661	18337.38874
509.869	18507.6504
510.077	17976.68293
510.285	18365.76383
510.492	18355.62978
510.7	18406.30095
510.908	18564.41029
511.116	18446.83958
511.324	18317.12128
511.531	18550.22003
511.739	18467.10947
511.947	18761.06635
512.155	18609.00947
512.362	18803.64625
512.57	18582.65518
512.778	18803.64625
512.985	18742.81836
513.193	18890.83914
513.401	19018.60026
513.608	19207.22941
513.816	18988.17949
514.024	19264.0279
514.231	19193.03028
514.439	19383.72103
514.646	19387.77868
514.854	19464.8771
515.061	19393.86518
515.269	19755.06458
515.477	19535.89412
515.684	19653.59071
515.892	19529.80675
516.099	19714.47378
516.307	19956.01379
516.514	19899.17549
516.722	19968.19385
516.929	19935.71402
517.136	20008.79516
517.344	19793.6274
517.551	19984.43417
517.759	20260.5608
517.966	20309.2971
518.173	20213.85745
518.381	20301.17422
518.588	20313.35857
518.796	20735.84266
519.003	20593.64034
519.21	20453.48949
519.418	20662.70749
519.625	20293.0514
519.832	20890.25679
520.039	20833.36459
520.247	21215.41679
520.454	21083.30792
520.661	21264.19979
520.868	20603.79697
521.076	21223.54713
521.283	20959.34451
521.49	21274.3632
521.697	21231.67753
521.904	21487.81815
522.112	21117.85781
522.319	21512.2158
522.526	21288.59216
522.733	21514.24896
522.94	21459.35494
523.147	21770.45907
523.354	21203.22141
523.561	21780.62742
523.768	21674.88136
523.975	21768.42542
524.183	21581.34558
524.39	22134.5456
524.597	22075.55126
524.804	22193.54309
525.011	22030.79904
525.218	22016.56009
525.425	21861.97768
525.632	21622.01229
525.838	21937.23215
526.045	22167.09555
526.252	22354.27617
526.459	22492.64694
526.666	22285.09709
526.873	22675.81016
527.08	22494.68192
527.287	22708.37551
527.494	22592.36558
527.701	23337.46388
527.907	22749.08344
528.114	22975.03745
528.321	22799.9703
528.528	23021.86197
528.735	23494.27536
528.941	23251.93825
529.148	22781.65078
529.355	23044.25693
529.562	23306.91837
529.768	23750.91529
529.975	22985.21654
530.182	23608.33162
530.388	23253.97451
530.595	23787.58202
530.802	23182.70737
531.008	24023.90126
531.215	23663.32644
531.422	24433.47398
531.628	23640.92088
531.835	23891.47623
532.042	24091.13699
532.248	24109.47454
532.455	24030.01347
532.661	24519.06984
532.868	24074.83714
533.074	24459.96745
533.281	24413.09468
533.487	24343.80702
533.694	24351.95835
533.9	24936.92203
534.107	24745.30885
534.313	24706.5811
534.52	24470.15736
534.726	24879.84358
534.933	24953.2305
535.139	25305.93628
535.345	25161.17618
535.552	25369.14479
535.758	24855.38195
535.965	24928.76786
536.171	25259.04097
536.377	25550.62545
536.584	25927.91058
536.79	25301.85839
536.996	25499.6461
537.203	25389.53506
537.409	25257.00207
537.615	25475.17646
537.821	25652.58789
538.028	25901.39654
538.234	25670.94165
538.44	25785.14636
538.646	25536.3511
538.853	26005.41492
539.059	26066.60439
539.265	26235.90345
539.471	26229.784
539.677	25787.18579
539.883	25805.54069
540.09	26093.12032
540.296	26472.53358
540.502	26596.97705
540.708	26217.54515
540.914	26556.17527
541.12	26837.7199
541.326	26951.97789
541.532	26609.21771
541.738	26725.50666
541.944	26862.20338
542.15	27355.99617
542.356	26823.43797
542.562	27337.63058
542.768	27076.44252
542.974	27204.9933
543.18	27174.38548
543.386	27331.50874
543.592	27645.77794
543.798	27353.95555
544.004	27270.29096
544.21	27407.01226
544.415	27431.50026
544.621	28098.86536
544.827	27500.88392
545.033	27917.21537
545.239	27809.04609
545.445	28121.31709
545.651	27721.28852
545.856	27725.37021
546.062	27949.87089
546.268	27611.08445
546.474	27539.65777
546.679	27313.14328
546.885	27449.86639
547.091	27625.36996
547.297	27713.12513
547.502	28066.20852
547.708	28009.05975
547.914	28129.4814
548.119	28574.4622
548.325	28343.80061
548.531	27802.9234
548.736	28449.94408
548.942	28347.883
549.147	28190.71423
549.353	28615.28867
549.559	28545.88392
549.764	28737.7706
549.97	28801.0544
550.175	28592.83406
550.381	28860.25628
550.586	28580.58614
550.792	29082.78152
550.997	28962.33055
551.203	29017.45173
551.408	28743.89479
551.614	28999.07792
551.819	29146.07076
552.025	28999.07792
552.23	29043.99183
552.435	29166.48686
552.641	29458.44849
552.846	29340.02791
553.052	29207.31937
553.257	29838.23526
553.462	29905.62073
553.668	29697.34226
553.873	29615.66753
554.078	29958.71316
554.283	29881.11678
554.489	30218.06037
554.694	30060.81614
554.899	29979.13353
555.105	30332.4242
555.31	30083.27918
555.515	29981.17557
555.72	30301.79067
555.925	30240.5244
556.131	30126.16356
556.336	30216.01819
556.541	30283.41067
556.746	30197.63865
556.951	30373.26935
557.156	29991.38581
557.361	30224.18691
557.567	30567.29054
557.772	30830.76954
557.977	30377.35389
558.182	30579.5449
558.387	30540.7396
558.592	30928.81399
558.797	30947.19768
559.002	30589.75689
559.207	30457.00343
559.412	30305.87512
559.617	30230.31346
559.822	31372.09849
560.027	30681.66632
560.232	31022.77629
560.437	30804.21639
560.642	30863.45067
560.847	31090.18592
561.051	31133.08379
561.256	31037.07517
561.461	31576.40192
561.666	31412.95786
561.871	31200.49606
562.076	31351.66905
562.281	31133.08379
562.485	31198.45324
562.69	31114.6989
562.895	31261.78138
563.1	31188.23916
563.305	30943.1124
563.509	31192.32478
563.714	31186.19635
563.919	31408.8719
564.123	31566.18636
564.328	31339.41146
564.533	31756.20304
564.737	31374.14145
564.942	31535.53991
565.147	31970.75682
565.351	32095.41204
565.556	31680.60318
565.761	31762.33286
565.965	31856.32557
566.17	31515.10915
566.374	31735.7704
566.579	31844.06543
566.784	31701.03533
566.988	32506.21571
567.193	32857.82207
567.397	32177.1572
567.602	32124.02247
567.806	31970.75682
568.011	32651.34692
568.215	32498.03965
568.42	32148.54602
568.624	32168.98254
568.828	32254.81816
569.033	32197.594
