Data from mixed_try1_USB4F045381__20__00245.txt Node

Date: Thu Apr 03 20:25:19 EDT 2025
User: mmckonesweet
Spectrometer: USB4F04538
Trigger mode: 4
Integration Time (sec): 2.700000E-3
Scans to average: 1
Electric dark correction enabled: true
Nonlinearity correction enabled: true
Boxcar width: 0
XAxis mode: Wavelengths
Number of Pixels in Spectrum: 3648
>>>>>Begin Spectral Data<<<<<
345.52	-43.72279
345.736	-43.72279
345.952	-43.72279
346.168	-39.50901
346.384	-28.97412
346.6	49.00291
346.816	-14.22423
347.032	-5.79519
347.248	46.895
347.464	-5.79519
347.68	-47.93647
347.896	-39.50901
348.112	-22.65289
348.328	11.06405
348.544	11.06405
348.76	19.49425
348.975	-1.58052
349.191	-43.72279
349.407	-10.00976
349.623	11.06405
349.839	23.70949
350.055	-1.58052
350.27	80.62436
350.486	-31.08114
350.702	-24.75999
350.918	-12.11701
351.133	-5.79519
351.349	-54.2568
351.565	8.95656
351.781	-14.22423
351.996	-20.54576
352.212	-16.33143
352.428	-12.11701
352.644	-35.29512
352.859	2.63424
353.075	2.63424
353.291	-10.00976
353.506	0.52684
353.722	44.78711
353.938	-26.86706
354.153	-54.2568
354.369	-10.00976
354.584	15.2791
354.8	-1.58052
355.016	11.06405
355.231	32.14026
355.447	-60.57691
355.662	2.63424
355.878	19.49425
356.093	-39.50901
356.309	-1.58052
356.524	-37.40208
356.74	53.21881
356.955	13.17157
357.171	15.2791
357.386	19.49425
357.602	-31.08114
357.817	-35.29512
358.033	-60.57691
358.248	2.63424
358.464	-64.79019
358.679	36.35578
358.895	6.8491
359.11	-5.79519
359.325	30.03253
359.541	74.29967
359.756	63.75895
359.972	-3.68787
360.187	53.21881
360.402	40.5714
360.618	-18.43861
360.833	-58.47023
361.048	-75.32294
361.264	-31.08114
361.479	-31.08114
361.694	-26.86706
361.909	-20.54576
362.125	-106.91731
362.34	-18.43861
362.555	-37.40208
362.77	27.92483
362.986	46.895
363.201	-18.43861
363.416	2.63424
363.631	-37.40208
363.847	-96.3865
364.062	55.32679
364.277	-14.22423
364.492	-10.00976
364.707	40.5714
364.922	21.60186
365.138	-64.79019
365.353	4.74166
365.568	-62.68356
365.783	-22.65289
365.998	-5.79519
366.213	21.60186
366.428	-26.86706
366.643	36.35578
366.858	-1.58052
367.073	-10.00976
367.288	4.74166
367.503	-104.8112
367.718	-22.65289
367.933	-12.11701
368.148	34.24801
368.363	13.17157
368.578	38.46358
368.793	46.895
369.008	-64.79019
369.223	-5.79519
369.438	19.49425
369.653	-14.22423
369.868	-35.29512
370.083	6.8491
370.298	-50.04327
370.513	44.78711
370.728	30.03253
370.943	15.2791
371.157	8.95656
371.372	-1.58052
371.587	44.78711
371.802	27.92483
372.017	86.94927
372.232	-28.97412
372.446	-54.2568
372.661	-20.54576
372.876	-3.68787
373.091	32.14026
373.306	32.14026
373.52	-37.40208
373.735	13.17157
373.95	-58.47023
374.165	30.03253
374.379	27.92483
374.594	-22.65289
374.809	-7.90249
375.023	53.21881
375.238	-10.00976
375.453	-54.2568
375.667	19.49425
375.882	-31.08114
376.097	-35.29512
376.311	30.03253
376.526	-26.86706
376.741	-35.29512
376.955	61.65088
377.17	2.63424
377.384	38.46358
377.599	11.06405
377.813	-56.36353
378.028	-16.33143
378.242	-7.90249
378.457	-56.36353
378.672	-28.97412
378.886	57.4348
379.101	36.35578
379.315	11.06405
379.53	11.06405
379.744	-26.86706
379.958	-1.58052
380.173	-144.82271
380.387	27.92483
380.602	55.32679
380.816	-1.58052
381.031	23.70949
381.245	-28.97412
381.459	15.2791
381.674	30.03253
381.888	6.8491
382.103	19.49425
382.317	-16.33143
382.531	30.03253
382.746	19.49425
382.96	23.70949
383.174	72.19148
383.388	-31.08114
383.603	-54.2568
383.817	-3.68787
384.031	36.35578
384.246	-7.90249
384.46	-33.18815
384.674	-24.75999
384.888	19.49425
385.103	-66.89679
385.317	-71.10991
385.531	-14.22423
385.745	-73.21644
385.959	-43.72279
386.174	11.06405
386.388	-20.54576
386.602	-18.43861
386.816	-28.97412
387.03	32.14026
387.244	-54.2568
387.458	44.78711
387.672	2.63424
387.887	13.17157
388.101	2.63424
388.315	2.63424
388.529	11.06405
388.743	-14.22423
388.957	-64.79019
389.171	-54.2568
389.385	-3.68787
389.599	38.46358
389.813	-20.54576
390.027	36.35578
390.241	114.35949
390.455	2.63424
390.669	-47.93647
390.883	27.92483
391.097	34.24801
391.311	-60.57691
391.525	2.63424
391.738	40.5714
391.952	-71.10991
392.166	-16.33143
392.38	23.70949
392.594	25.81715
392.808	-20.54576
393.022	-14.22423
393.236	4.74166
393.449	-73.21644
393.663	2.63424
393.877	-75.32294
394.091	-73.21644
394.305	-85.85504
394.518	-14.22423
394.732	-104.8112
394.946	-98.49271
395.16	-56.36353
395.373	55.32679
395.587	40.5714
395.801	95.38278
396.015	-22.65289
396.228	19.49425
396.442	27.92483
396.656	19.49425
396.869	-77.42941
397.083	-35.29512
397.297	19.49425
397.51	15.2791
397.724	27.92483
397.938	11.06405
398.151	-22.65289
398.365	78.51611
398.578	36.35578
398.792	59.54283
399.005	-52.15005
399.219	53.21881
399.433	23.70949
399.646	-54.2568
399.86	-14.22423
400.073	-3.68787
400.287	-14.22423
400.5	-12.11701
400.714	-1.58052
400.927	63.75895
401.141	-56.36353
401.354	40.5714
401.567	-77.42941
401.781	-22.65289
401.994	38.46358
402.208	19.49425
402.421	13.17157
402.635	30.03253
402.848	17.38667
403.061	-79.53586
403.275	21.60186
403.488	112.25088
403.701	11.06405
403.915	40.5714
404.128	-12.11701
404.341	-7.90249
404.555	4.74166
404.768	46.895
404.981	-10.00976
405.195	-12.11701
405.408	-56.36353
405.621	-85.85504
405.834	-24.75999
406.048	13.17157
406.261	57.4348
406.474	11.06405
406.687	-71.10991
406.9	-47.93647
407.114	15.2791
407.327	2.63424
407.54	8.95656
407.753	-75.32294
407.966	17.38667
408.179	11.06405
408.392	-22.65289
408.605	13.17157
408.819	53.21881
409.032	57.4348
409.245	-31.08114
409.458	-22.65289
409.671	-18.43861
409.884	23.70949
410.097	30.03253
410.31	4.74166
410.523	72.19148
410.736	-3.68787
410.949	-115.34148
411.162	63.75895
411.375	-104.8112
411.588	80.62436
411.801	23.70949
412.014	-26.86706
412.227	-10.00976
412.44	-14.22423
412.653	-26.86706
412.865	11.06405
413.078	61.65088
413.291	-22.65289
413.504	27.92483
413.717	36.35578
413.93	-64.79019
414.143	11.06405
414.356	-81.64228
414.568	-56.36353
414.781	-12.11701
414.994	-39.50901
415.207	-39.50901
415.42	78.51611
415.632	-20.54576
415.845	-54.2568
416.058	-31.08114
416.271	-60.57691
416.483	-22.65289
416.696	2.63424
416.909	-33.18815
417.121	-28.97412
417.334	-87.96139
417.547	67.97517
417.759	15.2791
417.972	21.60186
418.185	23.70949
418.397	32.14026
418.61	59.54283
418.823	15.2791
419.035	-10.00976
419.248	27.92483
419.46	13.17157
419.673	19.49425
419.885	-12.11701
420.098	-10.00976
420.311	-22.65289
420.523	27.92483
420.736	-73.21644
420.948	-14.22423
421.161	-26.86706
421.373	34.24801
421.586	-5.79519
421.798	36.35578
422.01	13.17157
422.223	55.32679
422.435	-14.22423
422.648	51.11085
422.86	-58.47023
423.073	-31.08114
423.285	11.06405
423.497	46.895
423.71	44.78711
423.922	-5.79519
424.134	-31.08114
424.347	11.06405
424.559	15.2791
424.771	-7.90249
424.984	27.92483
425.196	-39.50901
425.408	2.63424
425.621	-28.97412
425.833	-39.50901
426.045	-12.11701
426.257	8.95656
426.47	30.03253
426.682	-14.22423
426.894	0.52684
427.106	-26.86706
427.318	2.63424
427.531	-5.79519
427.743	49.00291
427.955	0.52684
428.167	-35.29512
428.379	-52.15005
428.591	82.73264
428.804	-14.22423
429.016	23.70949
429.228	-20.54576
429.44	36.35578
429.652	2.63424
429.864	25.81715
430.076	-20.54576
430.288	-5.79519
430.5	80.62436
430.712	23.70949
430.924	2.63424
431.136	-28.97412
431.348	-5.79519
431.56	-73.21644
431.772	32.14026
431.984	95.38278
432.196	2.63424
432.408	-31.08114
432.62	-22.65289
432.832	-45.82964
433.044	6.8491
433.256	-58.47023
433.468	70.08331
433.679	42.67924
433.891	-14.22423
434.103	11.06405
434.315	55.32679
434.527	27.92483
434.739	80.62436
434.95	11.06405
435.162	61.65088
435.374	-5.79519
435.586	-31.08114
435.798	-31.08114
436.009	-98.49271
436.221	40.5714
436.433	-47.93647
436.645	17.38667
436.856	2.63424
437.068	-54.2568
437.28	-22.65289
437.491	72.19148
437.703	19.49425
437.915	44.78711
438.126	44.78711
438.338	46.895
438.55	46.895
438.761	-5.79519
438.973	4.74166
439.184	-12.11701
439.396	13.17157
439.608	57.4348
439.819	15.2791
440.031	-52.15005
440.242	-3.68787
440.454	23.70949
440.665	-14.22423
440.877	15.2791
441.088	11.06405
441.3	38.46358
441.511	-5.79519
441.723	-28.97412
441.934	6.8491
442.146	-28.97412
442.357	36.35578
442.569	17.38667
442.78	-20.54576
442.991	63.75895
443.203	19.49425
443.414	23.70949
443.626	55.32679
443.837	67.97517
444.048	36.35578
444.26	49.00291
444.471	-43.72279
444.682	44.78711
444.894	27.92483
445.105	-18.43861
445.316	-33.18815
445.528	21.60186
445.739	-3.68787
445.95	-14.22423
446.161	2.63424
446.373	120.68545
446.584	30.03253
446.795	63.75895
447.006	23.70949
447.217	49.00291
447.429	-79.53586
447.64	6.8491
447.851	-12.11701
448.062	53.21881
448.273	-14.22423
448.484	44.78711
448.695	-5.79519
448.907	-69.00336
449.118	21.60186
449.329	11.06405
449.54	-10.00976
449.751	36.35578
449.962	-22.65289
450.173	51.11085
450.384	-41.61591
450.595	-10.00976
450.806	-39.50901
451.017	11.06405
451.228	-10.00976
451.439	63.75895
451.65	-5.79519
451.861	4.74166
452.072	8.95656
452.283	21.60186
452.494	57.4348
452.705	46.895
452.915	13.17157
453.126	-39.50901
453.337	-5.79519
453.548	-3.68787
453.759	19.49425
453.97	27.92483
454.181	-22.65289
454.391	86.94927
454.602	74.29967
454.813	0.52684
455.024	2.63424
455.235	30.03253
455.445	30.03253
455.656	15.2791
455.867	-1.58052
456.078	78.51611
456.288	6.8491
456.499	23.70949
456.71	97.49122
456.921	27.92483
457.131	-26.86706
457.342	-1.58052
457.553	-69.00336
457.763	78.51611
457.974	-12.11701
458.184	59.54283
458.395	-12.11701
458.606	-1.58052
458.816	13.17157
459.027	-10.00976
459.237	30.03253
459.448	59.54283
459.659	-1.58052
459.869	-3.68787
460.08	67.97517
460.29	36.35578
460.501	19.49425
460.711	-12.11701
460.922	23.70949
461.132	11.06405
461.343	65.86705
461.553	17.38667
461.764	11.06405
461.974	55.32679
462.184	89.05761
462.395	-52.15005
462.605	27.92483
462.816	-18.43861
463.026	-1.58052
463.236	-10.00976
463.447	27.92483
463.657	36.35578
463.867	4.74166
464.078	40.5714
464.288	36.35578
464.498	2.63424
464.709	40.5714
464.919	-77.42941
465.129	-12.11701
465.339	40.5714
465.55	15.2791
465.76	23.70949
465.97	63.75895
466.18	-5.79519
466.391	97.49122
466.601	11.06405
466.811	-56.36353
467.021	30.03253
467.231	49.00291
467.441	105.92518
467.651	46.895
467.862	-45.82964
468.072	53.21881
468.282	55.32679
468.492	8.95656
468.702	-3.68787
468.912	53.21881
469.122	70.08331
469.332	11.06405
469.542	84.84094
469.752	53.21881
469.962	61.65088
470.172	86.94927
470.382	-5.79519
470.592	97.49122
470.802	36.35578
471.012	89.05761
471.222	36.35578
471.432	-16.33143
471.642	80.62436
471.852	110.14229
472.062	6.8491
472.272	114.35949
472.482	32.14026
472.691	44.78711
472.901	38.46358
473.111	129.12037
473.321	36.35578
473.531	-10.00976
473.741	74.29967
473.95	70.08331
474.16	-14.22423
474.37	13.17157
474.58	63.75895
474.79	2.63424
474.999	67.97517
475.209	11.06405
475.419	30.03253
475.628	53.21881
475.838	105.92518
476.048	80.62436
476.258	145.99124
476.467	112.25088
476.677	120.68545
476.886	36.35578
477.096	105.92518
477.306	154.42718
477.515	55.32679
477.725	133.33796
477.935	65.86705
478.144	57.4348
478.354	120.68545
478.563	103.81665
478.773	103.81665
478.982	120.68545
479.192	171.30008
479.401	137.55563
479.611	207.15936
479.82	145.99124
480.03	164.97259
480.239	173.40929
480.449	209.26891
480.658	213.48807
480.868	179.73703
481.077	93.27437
481.287	192.39306
481.496	131.22915
481.705	137.55563
481.915	131.22915
482.124	255.68401
482.333	160.75436
482.543	154.42718
482.752	162.86346
482.961	240.91455
483.171	306.32919
483.38	247.24421
483.589	217.70731
483.799	183.95562
484.008	207.15936
484.217	249.35413
484.426	209.26891
484.636	259.90403
484.845	289.44628
485.054	209.26891
485.263	274.6747
485.472	308.43963
485.682	314.77108
485.891	251.46407
486.1	226.14603
486.309	274.6747
486.518	348.54149
486.727	312.66058
486.936	333.76638
487.146	331.65572
487.355	460.4368
487.564	344.31995
487.773	399.20538
487.982	356.9848
488.191	430.87514
488.4	365.42837
488.609	327.43445
488.818	369.65026
489.027	428.76371
489.236	432.98659
489.445	432.98659
489.654	407.65029
489.863	458.32515
490.072	523.79316
490.281	386.5385
490.49	384.42741
490.698	502.6729
490.907	468.88354
491.116	553.36388
491.325	509.00883
491.534	597.72496
491.743	498.44903
491.952	528.01738
492.16	532.24166
492.369	593.49984
492.578	468.88354
492.787	525.90526
492.996	559.70082
493.204	673.78553
493.413	589.27478
493.622	652.65602
493.831	553.36388
494.039	732.95422
494.248	639.97888
494.457	745.63433
494.665	720.27449
494.874	804.81301
495.083	711.82155
495.291	863.99908
495.5	849.20191
495.709	770.99567
495.917	678.01157
496.126	737.18088
496.335	787.90403
496.543	866.113
496.752	785.79045
496.96	855.54351
497.169	741.40759
497.377	866.113
497.586	933.76257
497.794	927.42009
498.003	893.59466
498.211	935.87675
498.42	914.73532
498.628	1060.62508
498.837	982.39044
499.045	1088.11478
499.254	931.6484
499.462	1045.82331
499.671	959.13317
499.879	1168.47394
500.087	959.13317
500.296	1164.24435
500.504	1231.91943
500.713	1179.04797
500.921	1160.01479
501.129	1105.03195
501.338	1075.42711
501.546	1253.06856
501.754	1215.00033
501.962	1253.06856
502.171	1176.93315
502.379	1246.72379
502.587	1322.86244
502.795	1379.96798
503.004	1176.93315
503.212	1549.17155
503.42	1240.37905
503.628	1333.43747
503.837	1346.12754
504.045	1263.64323
504.253	1354.58762
504.461	1468.79999
504.669	1373.62287
504.877	1595.70173
505.085	1451.87957
505.294	1538.59641
505.502	1356.70265
505.71	1595.70173
505.918	1396.8883
506.126	1521.67614
506.334	1485.72039
506.542	1633.77123
506.75	1475.14515
506.958	1728.94142
507.166	1667.61017
507.374	1642.23103
507.582	1625.3114
507.79	1779.69617
507.998	1610.50661
508.206	1762.77816
508.414	1540.71144
508.622	1703.56329
508.83	1731.05625
509.037	1855.82383
509.245	1652.80572
509.453	1832.56322
509.661	1853.70926
509.869	1938.28829
510.077	1853.70926
510.285	1904.45771
510.492	1824.10468
510.7	1929.83078
510.908	1676.06981
511.116	1885.42739
511.324	1659.1505
511.531	1980.57441
511.739	1938.28829
511.947	2010.17322
512.155	2069.36691
512.362	1980.57441
512.57	2005.9449
512.778	2132.78245
512.985	2160.26036
513.193	2092.62006
513.401	1972.11738
513.608	2270.1578
513.816	2115.87231
514.024	2200.41789
514.231	2056.68301
514.439	2240.57235
514.646	2143.35103
514.854	2445.51838
515.061	1948.86004
515.269	2183.50982
515.477	2050.34096
515.684	2162.37399
515.892	2185.62336
516.099	2369.46688
516.307	2303.96753
516.514	2411.71939
516.722	2090.50617
516.929	2401.15665
517.136	2210.98516
517.344	2394.81888
517.551	2259.59177
517.759	2373.69231
517.966	2284.94985
518.173	2549.01026
518.381	2301.85449
518.588	2597.57851
518.796	2563.79256
519.003	2559.56911
519.21	2464.52911
519.418	2498.32374
519.625	2475.09023
519.832	2549.01026
520.039	2606.02451
520.247	2787.56462
520.454	2625.02731
520.661	2736.91196
520.868	2641.91784
521.076	2933.14654
521.283	2724.24759
521.49	2745.35461
521.697	2838.20944
521.904	2806.55736
522.112	2741.13331
522.319	2880.40729
522.526	2791.78533
522.733	2994.31254
522.94	2852.97933
523.147	2945.8026
523.354	2859.30907
523.561	3078.65848
523.768	2937.36528
523.975	2918.38047
524.183	2829.76919
524.39	3002.74824
524.597	2994.31254
524.804	3095.52468
525.011	2947.91189
525.218	3321.01011
525.425	3013.29252
525.632	3084.98342
525.838	3158.76387
526.045	3095.52468
526.252	2964.78569
526.459	3167.19466
526.666	3200.91524
526.873	3514.72856
527.08	3044.92307
527.287	3184.05548
527.494	3125.0381
527.701	3306.26459
527.907	3369.45375
528.114	3603.11434
528.321	3382.0897
528.528	3575.76033
528.735	3415.78248
528.941	3491.57455
529.148	3333.64847
529.355	3533.67112
529.562	3327.32937
529.768	3569.44742
529.975	3373.6658
530.182	3548.40318
530.388	3445.25993
530.595	3714.60152
530.802	3512.62374
531.008	3788.19556
531.215	3828.13657
531.422	3832.34048
531.628	3588.38565
531.835	3805.01369
532.042	3561.02995
532.248	3987.82864
532.455	3710.39543
532.661	3903.79466
532.868	3756.65817
533.074	3891.18678
533.281	3958.42044
533.487	3903.79466
533.694	3926.90723
533.9	4193.57275
534.107	3914.30068
534.313	4076.02914
534.52	3922.70513
534.726	4046.63302
534.933	4046.63302
535.139	4197.76951
535.345	4023.53322
535.552	4155.79805
535.758	4151.60044
535.965	4290.07682
536.171	4176.78484
536.377	4327.82695
536.584	4057.1321
536.79	4271.19914
536.996	4015.13268
537.203	4441.03521
537.409	4359.28004
537.615	4373.95649
537.821	4283.78445
538.028	4397.01732
538.234	4336.21492
538.44	4501.80592
538.646	4340.40877
538.853	4533.23178
539.059	4359.28004
539.265	4508.09149
539.471	4485.04344
539.677	4650.51077
539.883	4348.79622
540.09	4727.96015
540.296	4575.12515
540.502	4826.29716
540.708	4562.55807
540.914	4692.37913
541.12	4583.50276
541.326	4939.21796
541.532	4612.82158
541.738	4826.29716
541.944	4801.1946
542.15	5052.07176
542.356	4811.6544
542.562	4951.76059
542.768	4748.88711
542.974	4880.67476
543.18	4876.49242
543.386	4976.84336
543.592	4972.66313
543.798	5148.15329
544.004	5037.44636
544.21	5386.05584
544.415	4947.5798
544.621	5106.38475
544.827	5110.56202
545.033	5323.47938
545.239	5131.44699
545.445	5269.2294
545.651	5014.4613
545.856	5469.45824
546.062	5208.70115
546.268	5408.99525
546.474	5265.05566
546.679	5277.57658
546.885	5173.20995
547.091	5181.56143
547.297	5235.83693
547.502	5413.16574
547.708	5231.66245
547.914	5323.47938
548.119	5246.27272
548.325	5396.48319
548.531	5444.44147
548.736	5598.65756
548.942	5444.44147
549.147	5569.49144
549.353	5488.2186
549.559	5531.98535
549.764	5517.39759
549.97	5734.01116
550.175	5423.59157
550.381	5829.7396
550.586	5548.65566
550.792	5885.90478
550.997	5746.50031
551.203	5977.39638
551.408	5644.48071
551.614	5679.88168
551.819	5619.48768
552.025	5977.39638
552.23	5627.81907
552.435	6045.98512
552.641	5713.19402
552.846	5958.6859
553.052	5856.78425
553.257	6039.75084
553.462	5813.09477
553.668	6031.43814
553.873	5813.09477
554.078	6093.77424
554.283	6064.68669
554.489	6264.05168
554.694	6018.96838
554.899	6102.08412
555.105	6149.85863
555.31	6243.29458
555.515	6257.82479
555.72	6251.5977
555.925	6160.24275
556.131	6334.6083
556.336	6066.76453
556.541	6369.87649
556.746	6288.9571
556.951	6168.54962
557.156	6112.47094
557.361	6380.2482
557.567	6355.35511
557.772	6382.32247
557.977	6187.23871
558.182	6322.1591
558.387	6425.87681
558.592	6357.42966
558.797	6461.12757
559.002	6546.1165
559.207	6446.61337
559.412	6469.42089
559.617	6425.87681
559.822	6515.02751
560.027	6320.08415
560.232	6591.70427
560.437	6307.63396
560.642	6873.27255
560.847	6552.33367
561.051	6842.23796
561.256	6668.34941
561.461	6778.08359
561.666	6593.77617
561.871	6616.56561
562.076	6554.40602
562.281	6653.8514
562.485	6647.63762
562.69	6804.98971
562.895	6726.33021
563.1	6674.5625
563.305	6711.8367
563.509	6811.19826
563.714	6678.70445
563.919	7080.03973
564.123	7046.9721
564.328	7113.10163
564.533	6809.12877
564.737	6916.71238
564.942	7030.43614
565.147	7331.99322
565.351	6987.02238
565.556	6997.35989
565.761	6910.5073
565.965	7168.88065
566.17	6778.08359
566.374	6964.27789
566.579	6922.91725
566.784	7160.61811
566.988	7311.35365
567.193	7280.39019
567.397	7255.61586
567.602	7303.09721
567.806	7131.69644
568.011	7280.39019
568.215	7282.45458
568.42	7426.90709
568.624	7224.64348
568.828	7253.55119
569.033	7199.86199
569.237	7416.5926
569.442	7383.58257
569.646	7191.60079
569.85	7294.84042
570.055	7567.13058
570.259	7406.27756
570.463	7501.15547
570.668	7216.38333
570.872	7443.40916
571.076	7577.43721
571.281	7563.00778
571.485	7319.60974
571.689	7569.19195
571.893	7431.03274
572.098	7591.86559
572.302	7696.95519
572.506	7719.61435
572.71	7591.86559
572.914	7818.46099
573.119	7804.04886
573.323	7744.33054
573.527	7560.94634
573.731	7616.59752
573.935	7637.20513
574.139	7785.51747
574.343	7583.62093
574.547	7923.43301
574.751	7641.32639
574.955	7649.56867
575.159	7789.6357
575.364	7795.81289
575.568	7904.91244
575.772	7775.22152
575.976	7651.62919
576.18	7867.86629
576.383	7849.34071
576.587	8026.29483
576.791	7820.51979
576.995	8011.89725
577.199	7731.97282
577.403	8036.57821
