Data from mixed_try1_USB4F045381__36__00261.txt Node

Date: Thu Apr 03 20:27:16 EDT 2025
User: mmckonesweet
Spectrometer: USB4F04538
Trigger mode: 4
Integration Time (sec): 2.700000E-3
Scans to average: 1
Electric dark correction enabled: true
Nonlinearity correction enabled: true
Boxcar width: 0
XAxis mode: Wavelengths
Number of Pixels in Spectrum: 3648
>>>>>Begin Spectral Data<<<<<
345.52	-31.78348
345.736	-31.78348
345.952	-31.78348
346.168	-65.49239
346.384	-12.81942
346.6	-10.71218
346.816	12.46906
347.032	-65.49239
347.248	4.03918
347.464	-33.89048
347.68	-25.46235
347.896	-19.141
348.112	-2.28298
348.328	10.36155
348.544	29.32996
348.76	18.79172
348.975	82.02988
349.191	-2.28298
349.407	4.03918
349.623	65.16435
349.839	-90.7698
350.055	-99.19478
350.27	44.08449
350.486	-71.81209
350.702	-12.81942
350.918	-14.92664
351.133	-6.49763
351.349	10.36155
351.565	-27.56942
351.781	33.54542
351.996	46.19237
352.212	-0.17561
352.428	48.30027
352.644	-46.53192
352.859	-38.10439
353.075	8.25407
353.291	-10.71218
353.506	-35.99745
353.722	-54.95905
353.938	-31.78348
354.153	-65.49239
354.369	-80.238
354.584	-19.141
354.8	-116.04347
355.016	-40.21131
355.231	35.65319
355.447	39.86879
355.662	-29.67646
355.878	-4.39031
356.093	-31.78348
356.309	-78.13156
356.524	6.14661
356.74	23.00695
356.955	-4.39031
357.171	-8.60492
357.386	12.46906
357.602	-52.8523
357.817	-82.34441
358.033	39.86879
358.248	29.32996
358.464	-25.46235
358.679	-48.63874
358.895	-40.21131
359.11	-48.63874
359.325	41.97663
359.541	75.70514
359.756	-2.28298
359.972	-42.31821
360.187	-38.10439
360.402	-10.71218
360.618	-6.49763
360.833	4.03918
361.048	27.22227
361.264	-4.39031
361.479	16.68414
361.694	-4.39031
361.909	-44.42508
362.125	-59.17246
362.34	-23.35526
362.555	-2.28298
362.77	-6.49763
362.986	52.51615
363.201	-0.17561
363.416	-25.46235
363.631	-4.39031
363.847	12.46906
364.062	-73.91861
364.277	-27.56942
364.492	-14.92664
364.707	1.93177
364.922	-23.35526
365.138	27.22227
365.353	-6.49763
365.568	-54.95905
365.783	12.46906
365.998	-21.24814
366.213	-6.49763
366.428	10.36155
366.643	12.46906
366.858	44.08449
367.073	18.79172
367.288	-29.67646
367.503	-65.49239
367.718	35.65319
367.933	-17.03383
368.148	-40.21131
368.363	-73.91861
368.578	18.79172
368.793	-40.21131
369.008	-10.71218
369.223	1.93177
369.438	-6.49763
369.653	27.22227
369.868	-8.60492
370.083	-21.24814
370.298	-63.38577
370.513	-19.141
370.728	-14.92664
370.943	-80.238
371.157	-57.06577
371.372	27.22227
371.587	27.22227
371.802	35.65319
372.017	-35.99745
372.232	-35.99745
372.446	-14.92664
372.661	6.14661
372.876	-31.78348
373.091	-6.49763
373.306	-0.17561
373.52	48.30027
373.735	-10.71218
373.95	-12.81942
374.165	4.03918
374.379	52.51615
374.594	-4.39031
374.809	-21.24814
375.023	69.38059
375.238	-10.71218
375.453	-80.238
375.667	-25.46235
375.882	-23.35526
376.097	-0.17561
376.311	23.00695
376.526	35.65319
376.741	-27.56942
376.955	4.03918
377.17	-48.63874
377.384	-14.92664
377.599	29.32996
377.813	-23.35526
378.028	18.79172
378.242	44.08449
378.457	-6.49763
378.672	-12.81942
378.886	52.51615
379.101	44.08449
379.315	-31.78348
379.53	44.08449
379.744	-14.92664
379.958	-12.81942
380.173	-4.39031
380.387	-4.39031
380.602	6.14661
380.816	10.36155
381.031	-31.78348
381.245	71.48875
381.459	-17.03383
381.674	14.57659
381.888	18.79172
382.103	69.38059
382.317	10.36155
382.531	-14.92664
382.746	-82.34441
382.96	18.79172
383.174	12.46906
383.388	75.70514
383.603	50.4082
383.817	-12.81942
384.031	-25.46235
384.246	-99.19478
384.46	-46.53192
384.674	-33.89048
384.888	44.08449
385.103	-48.63874
385.317	31.43768
385.531	-50.74553
385.745	37.76098
385.959	31.43768
386.174	33.54542
386.388	69.38059
386.602	-10.71218
386.816	44.08449
387.03	39.86879
387.244	-6.49763
387.458	-6.49763
387.672	63.05626
387.887	37.76098
388.101	39.86879
388.315	10.36155
388.529	4.03918
388.743	39.86879
388.957	44.08449
389.171	20.89932
389.385	46.19237
389.599	37.76098
389.813	-8.60492
390.027	-4.39031
390.241	44.08449
390.455	-54.95905
390.669	-27.56942
390.883	-14.92664
391.097	52.51615
391.311	6.14661
391.525	27.22227
391.738	29.32996
391.952	-65.49239
392.166	-8.60492
392.38	69.38059
392.594	88.35483
392.808	-0.17561
393.022	-40.21131
393.236	-19.141
393.449	4.03918
393.663	1.93177
393.877	10.36155
394.091	-46.53192
394.305	37.76098
394.518	-46.53192
394.732	6.14661
394.946	18.79172
395.16	-23.35526
395.373	60.94819
395.587	-27.56942
395.801	23.00695
396.015	-48.63874
396.228	-38.10439
396.442	-27.56942
396.656	-6.49763
396.869	1.93177
397.083	-6.49763
397.297	-82.34441
397.51	14.57659
397.724	-6.49763
397.938	77.81336
398.151	18.79172
398.365	20.89932
398.578	-12.81942
398.792	10.36155
399.005	-6.49763
399.219	1.93177
399.433	23.00695
399.646	-14.92664
399.86	-4.39031
400.073	-12.81942
400.287	-103.40711
400.5	69.38059
400.714	16.68414
400.927	-19.141
401.141	6.14661
401.354	60.94819
401.567	-23.35526
401.781	52.51615
401.994	52.51615
402.208	-6.49763
402.421	1.93177
402.635	-33.89048
402.848	60.94819
403.061	29.32996
403.275	44.08449
403.488	10.36155
403.701	52.51615
403.915	-31.78348
404.128	-42.31821
404.341	35.65319
404.555	-2.28298
404.768	-14.92664
404.981	58.84015
405.195	10.36155
405.408	4.03918
405.621	-17.03383
405.834	-12.81942
406.048	27.22227
406.261	-54.95905
406.474	-44.42508
406.687	-27.56942
406.9	-0.17561
407.114	-6.49763
407.327	65.16435
407.54	1.93177
407.753	-14.92664
407.966	6.14661
408.179	101.00532
408.392	1.93177
408.605	12.46906
408.819	4.03918
409.032	27.22227
409.245	-10.71218
409.458	23.00695
409.671	-61.27913
409.884	23.00695
410.097	-19.141
410.31	54.62413
410.523	44.08449
410.736	23.00695
410.949	-6.49763
411.162	35.65319
411.375	1.93177
411.588	-44.42508
411.801	6.14661
412.014	50.4082
412.227	-40.21131
412.44	88.35483
412.653	14.57659
412.865	63.05626
413.078	-10.71218
413.291	-27.56942
413.504	-46.53192
413.717	18.79172
413.93	48.30027
414.143	-44.42508
414.356	10.36155
414.568	44.08449
414.781	31.43768
414.994	-57.06577
415.207	-4.39031
415.42	23.00695
415.632	-2.28298
415.845	18.79172
416.058	-82.34441
416.271	73.59693
416.483	52.51615
416.696	46.19237
416.909	-4.39031
417.121	54.62413
417.334	18.79172
417.547	-12.81942
417.759	56.73213
417.972	-6.49763
418.185	-61.27913
418.397	63.05626
418.61	1.93177
418.823	18.79172
419.035	-19.141
419.248	1.93177
419.46	18.79172
419.673	48.30027
419.885	44.08449
420.098	6.14661
420.311	-65.49239
420.523	-40.21131
420.736	14.57659
420.948	54.62413
421.161	-29.67646
421.373	-2.28298
421.586	-4.39031
421.798	25.11459
422.01	-2.28298
422.223	37.76098
422.435	27.22227
422.648	-23.35526
422.86	-27.56942
423.073	-31.78348
423.285	56.73213
423.497	18.79172
423.71	-52.8523
423.922	27.22227
424.134	52.51615
424.347	14.57659
424.559	29.32996
424.771	73.59693
424.984	-44.42508
425.196	71.48875
425.408	-44.42508
425.621	29.32996
425.833	-10.71218
426.045	-21.24814
426.257	-14.92664
426.47	44.08449
426.682	20.89932
426.894	-82.34441
427.106	77.81336
427.318	10.36155
427.531	-50.74553
427.743	-38.10439
427.955	88.35483
428.167	-8.60492
428.379	1.93177
428.591	35.65319
428.804	23.00695
429.016	-6.49763
429.228	6.14661
429.44	-27.56942
429.652	27.22227
429.864	60.94819
430.076	-63.38577
430.288	-65.49239
430.5	12.46906
430.712	20.89932
430.924	52.51615
431.136	50.4082
431.348	-97.08857
431.56	-65.49239
431.772	10.36155
431.984	25.11459
432.196	-12.81942
432.408	98.89685
432.62	25.11459
432.832	20.89932
433.044	6.14661
433.256	23.00695
433.468	27.22227
433.679	-19.141
433.891	67.27246
434.103	29.32996
434.315	35.65319
434.527	18.79172
434.739	-10.71218
434.95	14.57659
435.162	29.32996
435.374	18.79172
435.586	54.62413
435.798	-40.21131
436.009	56.73213
436.221	18.79172
436.433	-2.28298
436.645	4.03918
436.856	60.94819
437.068	41.97663
437.28	-10.71218
437.491	35.65319
437.703	18.79172
437.915	35.65319
438.126	-23.35526
438.338	39.86879
438.55	-6.49763
438.761	-0.17561
438.973	94.67998
439.184	6.14661
439.396	41.97663
439.608	90.46319
439.819	73.59693
440.031	37.76098
440.242	23.00695
440.454	20.89932
440.665	-27.56942
440.877	94.67998
441.088	37.76098
441.3	18.79172
441.511	-42.31821
441.723	-10.71218
441.934	31.43768
442.146	69.38059
442.357	23.00695
442.569	60.94819
442.78	-10.71218
442.991	50.4082
443.203	29.32996
443.414	77.81336
443.626	16.68414
443.837	-21.24814
444.048	71.48875
444.26	-19.141
444.471	29.32996
444.682	52.51615
444.894	46.19237
445.105	23.00695
445.316	-23.35526
445.528	94.67998
445.739	23.00695
445.95	63.05626
446.161	6.14661
446.373	10.36155
446.584	77.81336
446.795	44.08449
447.006	96.7884
447.217	58.84015
447.429	52.51615
447.64	27.22227
447.851	39.86879
448.062	18.79172
448.273	77.81336
448.484	82.02988
448.695	-19.141
448.907	107.33087
449.118	75.70514
449.329	71.48875
449.54	-71.81209
449.751	82.02988
449.962	31.43768
450.173	73.59693
450.384	27.22227
450.595	14.57659
450.806	18.79172
451.017	39.86879
451.228	-8.60492
451.439	44.08449
451.65	27.22227
451.861	37.76098
452.072	58.84015
452.283	75.70514
452.494	35.65319
452.705	73.59693
452.915	113.65661
453.126	48.30027
453.337	39.86879
453.548	107.33087
453.759	107.33087
453.97	103.11382
454.181	126.30869
454.391	65.16435
454.602	79.92161
454.813	130.52622
455.024	60.94819
455.235	56.73213
455.445	153.72418
455.656	84.13817
455.867	27.22227
456.078	29.32996
456.288	48.30027
456.499	119.98255
456.71	141.07043
456.921	115.76524
457.131	92.57157
457.342	86.24649
457.553	107.33087
457.763	88.35483
457.974	60.94819
458.184	69.38059
458.395	187.47118
458.606	136.85268
458.816	101.00532
459.027	103.11382
459.237	126.30869
459.448	132.63502
459.659	92.57157
459.869	88.35483
460.08	187.47118
460.29	107.33087
460.501	86.24649
460.711	141.07043
460.922	98.89685
461.132	20.89932
461.343	90.46319
461.553	96.7884
461.764	60.94819
461.974	90.46319
462.184	48.30027
462.395	217.0041
462.605	153.72418
462.816	119.98255
463.026	79.92161
463.236	103.11382
463.447	122.09124
463.657	132.63502
463.867	147.39721
464.078	208.56572
464.288	147.39721
464.498	206.45618
464.709	113.65661
464.919	170.59702
465.129	136.85268
465.339	157.94226
465.55	227.55252
465.76	219.11374
465.97	155.83321
466.18	187.47118
466.391	195.90876
466.601	233.8818
466.811	240.21127
467.021	187.47118
467.231	179.03394
467.441	191.68993
467.651	153.72418
467.862	170.59702
468.072	221.22341
468.282	282.41208
468.492	259.20069
468.702	314.06758
468.912	301.40489
469.122	358.39204
469.332	330.95217
469.542	307.73615
469.752	297.18413
469.962	341.50562
470.172	371.05758
470.382	305.62571
470.592	392.16815
470.802	392.16815
471.012	455.50964
471.222	415.39169
471.432	415.39169
471.642	461.84457
471.852	520.97704
472.062	436.5057
472.272	476.6266
472.482	499.85698
472.691	601.24592
472.901	533.64976
473.111	466.06793
473.321	624.48519
473.531	673.0812
473.741	508.30483
473.95	616.03437
474.16	580.12066
474.37	721.68333
474.58	628.71068
474.79	711.11715
474.999	723.7966
475.209	749.15665
475.419	791.42669
475.628	833.70058
475.838	875.97805
476.048	837.92817
476.258	897.11805
476.467	1000.71491
476.677	958.42842
476.886	1210.06564
477.096	933.05785
477.306	1015.5158
477.515	1009.17253
477.725	985.91434
477.935	1078.95145
478.144	1066.26392
478.354	1133.93281
478.563	1258.70837
478.773	1383.49304
478.982	1305.23751
479.192	1296.77759
479.401	1362.34271
479.611	1573.84674
479.82	1523.08617
480.03	1398.29832
480.239	1523.08617
480.449	1410.9886
480.658	1734.58094
480.868	1753.61414
481.077	1734.58094
481.287	1700.74347
481.496	1764.188
481.705	1785.33545
481.915	2108.82627
482.124	1897.40949
482.333	1922.78278
482.543	2022.15333
482.752	1956.61257
482.961	2081.34592
483.171	2100.37091
483.38	2106.71244
483.589	2203.94034
483.799	2176.46464
484.008	2334.95764
484.217	2313.82825
484.426	2368.76263
484.636	2353.97326
484.845	2476.49836
485.054	2351.86046
485.263	2567.31208
485.472	2385.66416
485.682	2613.76651
485.891	2503.9559
486.1	2734.0977
486.309	2812.18462
486.518	2841.72614
486.727	2810.07441
486.936	2892.36231
487.146	2955.64583
487.355	2947.2088
487.564	3069.5222
487.773	3115.90332
487.982	2860.71566
488.191	3061.08845
488.4	3187.56801
488.609	3193.89046
488.818	3099.03835
489.027	3286.60258
489.236	3092.71372
489.445	3549.80619
489.654	3410.86923
489.863	3526.65553
490.072	3412.97492
490.281	3575.05891
490.49	3644.49002
490.698	3642.38635
490.907	3602.413
491.116	3903.09424
491.325	3789.59712
491.534	3781.18763
491.743	3667.62916
491.952	3787.49477
492.16	3785.39241
492.369	4039.63334
492.578	3919.90368
492.787	4003.93144
492.996	4003.93144
493.204	4264.20697
493.413	4205.46336
493.622	4413.08846
493.831	4197.07006
494.039	4255.81605
494.248	4377.45072
494.457	4618.40563
494.665	4670.74827
494.874	4511.58339
495.083	4484.34497
495.291	4526.24868
495.5	4543.00769
495.709	4559.76528
495.917	4559.76528
496.126	4823.50815
496.335	4612.12357
496.543	4917.61482
496.752	4687.49495
496.96	4777.48363
497.169	4783.76035
497.377	5141.19251
497.586	4905.06994
497.794	5059.73224
498.003	4850.69927
498.211	5220.53005
498.42	5015.85442
498.628	5059.73224
498.837	5122.39712
499.045	5195.47973
499.254	5197.56738
499.462	5289.40111
499.671	5335.30099
499.879	5479.18607
500.087	5435.4068
500.296	5510.45063
500.504	5372.84701
500.713	5687.51629
500.921	5627.1248
501.129	5416.64108
501.338	5268.53378
501.546	5870.65174
501.754	5722.90898
501.962	5689.5984
502.171	5677.10538
502.379	5924.72497
502.587	5710.41822
502.795	5754.13215
503.004	5677.10538
503.212	6001.64785
503.42	5887.29136
503.628	6001.64785
503.837	5856.09084
504.045	6003.7264
504.253	5881.05168
504.461	6348.43977
504.669	6288.26533
504.877	6313.16748
505.085	6267.51096
505.294	6180.31705
505.502	6176.16392
505.71	6464.58317
505.918	6201.08126
506.126	6240.52679
506.334	6250.90579
506.542	6593.08554
506.75	6344.29044
506.958	6609.66001
507.166	6327.69218
507.374	6630.37603
507.582	6574.43749
507.79	6824.99432
507.998	6551.64289
508.206	6690.43946
508.414	6369.18502
508.622	6752.55371
508.83	6752.55371
509.037	6899.47555
509.245	6620.01831
509.453	7116.54525
509.661	6818.78622
509.869	7044.21621
510.077	6849.82467
510.285	6947.04539
510.492	6800.16069
510.7	7066.95115
510.908	6843.61739
511.116	6920.15956
511.324	7085.55044
511.531	6928.43253
511.739	7120.67751
511.947	7349.87907
512.155	7166.12651
512.362	7176.45433
512.57	6916.02294
512.778	7172.32327
512.985	7166.12651
513.193	7145.46921
513.401	7279.70206
513.608	7384.9581
513.816	7242.53924
514.024	7271.44427
514.231	7415.90495
514.439	7541.70527
514.646	7387.02137
514.854	7409.71597
515.061	7244.60402
515.269	7636.51824
515.477	7339.56051
515.684	7539.64362
515.892	7710.68832
516.099	7690.08827
516.307	7702.44855
516.514	7733.34594
516.722	7527.27324
516.929	7708.62841
517.136	7698.32854
517.344	7920.68932
517.551	7716.86792
517.759	7856.88837
517.966	8278.43556
518.173	7906.28439
518.381	7805.42149
518.588	7937.15087
518.796	8095.5265
519.003	7994.75596
519.21	8159.25429
519.418	8068.79619
519.625	8091.41436
519.832	8175.69705
520.039	7980.35619
520.247	8148.97691
520.454	8035.89267
520.661	8438.60987
520.868	8358.53748
521.076	8270.21829
521.283	8319.51718
521.49	8643.7911
521.697	8592.51347
521.904	8627.38353
522.112	8385.23154
522.319	8746.31157
522.526	8524.80903
522.733	8543.27592
522.94	8465.29416
523.147	8826.24571
523.354	8594.5648
523.561	8721.71086
523.768	8775.00906
523.975	8945.07141
524.183	8649.94364
524.39	9127.29192
524.597	8848.78626
524.804	8924.58851
525.011	8801.65354
525.218	8904.10382
525.425	8910.24942
525.632	9094.54333
525.838	9155.94334
526.045	9170.26779
526.252	9053.60137
526.459	9117.05846
526.666	9153.89692
526.873	9248.0146
527.08	9170.26779
527.287	9260.28818
527.494	9072.02611
527.701	9626.17908
527.907	9231.64887
528.114	9769.12702
528.321	9536.28715
528.528	9577.1509
528.735	9376.85739
528.941	9830.3676
529.148	9493.37338
529.355	9750.7522
529.562	9241.87758
529.768	9885.47263
529.975	9691.53605
530.182	9642.51981
530.388	9718.08281
530.595	9709.91485
530.802	9787.50061
531.008	10142.48938
531.215	9867.10548
531.422	10069.07914
531.628	10067.03971
531.835	10040.52578
532.042	9903.83857
532.248	10130.2556
532.455	10317.7859
532.661	10215.88159
532.868	10075.19736
533.074	10191.41951
533.281	10103.74735
533.487	10185.30368
533.694	10101.70816
533.9	10332.04982
534.107	10482.80047
534.313	10788.16399
534.52	10440.02712
534.726	10437.99015
534.933	10562.22178
535.139	10688.44219
535.345	10527.6046
535.552	10513.34941
535.758	10637.55256
535.965	10944.81274
536.171	10407.43407
536.377	10637.55256
536.584	10670.1228
536.79	10794.26848
536.996	10655.8737
537.203	10680.30036
537.409	10556.11313
537.615	10786.12914
537.821	10706.7606
538.028	11241.65379
538.234	10895.99448
538.44	11024.1286
538.646	10883.78889
538.853	10948.88064
539.059	10871.58288
539.265	11394.05377
539.471	10857.34201
539.677	11119.69213
539.883	11117.65911
540.09	11227.42688
540.296	11294.49222
540.502	11507.8095
540.708	11247.75089
540.914	11544.36748
541.12	11359.51472
541.326	11418.43255
541.532	11347.32378
541.738	11621.53552
541.944	11485.46701
542.15	11767.71283
542.356	11511.87165
542.562	11688.53918
542.768	11725.08252
542.974	12001.09832
543.18	11639.81022
543.386	11865.13928
543.592	11974.72105
543.798	11802.22028
544.004	11763.65296
544.21	11832.66597
544.415	11844.84371
544.621	12084.27944
544.827	11844.84371
545.033	12222.21008
545.239	12059.9351
545.445	12066.02129
545.651	11995.01138
545.856	12147.16388
546.062	11919.93315
546.268	12053.84884
546.474	11731.1728
546.679	12112.67976
546.885	11873.25727
547.091	12169.47597
547.297	12068.05
547.502	12441.20808
547.708	11956.45907
547.914	12307.38563
548.119	12380.38337
548.325	12364.16242
548.531	12285.07896
548.736	12416.87892
548.942	12327.66368
549.147	12724.98052
549.353	12577.02865
549.559	12528.37981
549.764	12445.26284
549.97	12534.46111
550.175	12605.40548
550.381	12777.66812
550.586	12418.90638
550.792	12806.03678
550.997	12575.00169
551.203	12727.00704
551.408	12587.16337
551.614	12870.87536
551.819	12828.32568
552.025	13089.66591
552.23	12872.90148
552.435	13020.79376
552.641	13140.30367
552.846	13065.35874
553.052	13010.66502
553.257	13016.74228
553.462	13018.76802
553.668	12980.27805
553.873	12889.11021
554.078	13273.9736
554.283	12931.65652
554.489	13330.67632
554.694	13194.98918
554.899	13322.57614
555.105	13180.81177
555.31	13478.49346
555.515	13207.14107
555.72	13448.12177
555.925	13440.02251
556.131	13342.82648
556.336	13423.82381
556.541	13867.18242
556.746	13636.41299
556.951	13508.8643
557.156	13308.40065
557.361	13816.57844
557.567	13802.409
557.772	13917.78466
557.977	13739.65689
558.182	13889.44761
558.387	13743.7055
558.592	13909.68841
558.797	13707.26754
559.002	13711.31625
559.207	13826.69938
559.412	13723.46231
559.617	13940.04911
559.822	13917.78466
560.027	13498.74078
560.232	14055.41455
560.437	13996.72086
560.642	13980.52913
560.847	13853.01348
561.051	13903.6162
561.256	14112.08246
561.461	14191.00991
561.666	13933.97702
561.871	14029.10384
562.076	13905.64028
562.281	14360.9974
562.485	13931.95298
562.69	14085.77258
562.895	13842.89273
563.1	14103.98716
563.305	13988.62502
563.509	14103.98716
563.714	13919.80871
563.919	14541.09062
564.123	14273.98161
564.328	14122.20155
564.533	14476.3393
564.737	14182.91493
564.942	14375.16246
565.147	14587.62984
565.351	14468.24529
565.556	14375.16246
565.761	14201.12858
565.965	14547.16099
566.17	14263.86328
566.374	14620.00458
566.579	14304.33632
566.784	14636.19185
566.988	14654.40244
567.193	14569.41891
567.397	14642.26206
567.602	14854.71429
567.806	14456.10423
568.011	14704.98702
568.215	14755.57102
568.42	14883.04065
568.624	15061.09008
568.828	14866.85417
569.033	14688.80002
569.237	14864.83086
569.442	14816.27118
569.646	14769.73445
569.85	14761.64107
570.055	14923.5067
570.259	14613.93434
570.463	15065.13663
570.668	14834.4811
570.872	15133.9279
571.076	15026.69437
571.281	15267.46384
571.485	14848.64434
571.689	15105.6021
571.893	15067.15991
572.098	15336.25534
572.302	15245.20782
572.506	14984.20544
572.71	15109.64865
572.914	15277.58022
573.119	15415.16369
573.323	14899.2271
573.527	15251.27764
