Data from mixed_try1_USB4F045381__17__00242.txt Node

Date: Thu Apr 03 20:24:32 EDT 2025
User: mmckonesweet
Spectrometer: USB4F04538
Trigger mode: 4
Integration Time (sec): 2.700000E-3
Scans to average: 1
Electric dark correction enabled: true
Nonlinearity correction enabled: true
Boxcar width: 0
XAxis mode: Wavelengths
Number of Pixels in Spectrum: 3648
>>>>>Begin Spectral Data<<<<<
345.52	-71.461
345.736	-71.461
345.952	-71.461
346.168	-14.57544
346.384	-20.89695
346.6	33.89672
346.816	19.14299
347.032	0.17561
347.248	-20.89695
347.464	40.22009
347.68	-8.2537
347.896	-65.14129
348.112	-6.14641
348.328	12.82031
348.544	36.00449
348.76	-14.57544
348.975	-27.21824
349.191	63.4076
349.407	10.7128
349.623	10.7128
349.839	-27.21824
350.055	78.16474
350.27	27.57355
350.486	-14.57544
350.702	2.283
350.918	19.14299
351.133	-10.36097
351.349	-56.71465
351.565	-31.43231
351.781	-48.28761
351.996	36.00449
352.212	-39.86016
352.428	25.46587
352.644	40.22009
352.859	27.57355
353.075	-56.71465
353.291	-29.32529
353.506	40.22009
353.722	23.35822
353.938	21.25059
354.153	17.0354
354.369	-12.46822
354.584	118.22533
354.8	-20.89695
355.016	25.46587
355.231	-6.14641
355.447	12.82031
355.662	-35.64629
355.878	-1.93175
356.093	44.4358
356.309	-29.32529
356.524	-29.32529
356.74	46.54368
356.955	63.4076
357.171	38.11228
357.386	-14.57544
357.602	52.86748
357.817	2.283
358.033	42.32793
358.248	36.00449
358.464	73.9483
358.679	-6.14641
358.895	78.16474
359.11	-18.7898
359.325	-6.14641
359.541	2.283
359.756	10.7128
359.972	10.7128
360.187	-46.18078
360.402	2.283
360.618	69.73195
360.833	-27.21824
361.048	-23.00407
361.264	67.62381
361.479	17.0354
361.694	-1.93175
361.909	-33.53931
362.125	-39.86016
362.34	61.29953
362.555	-20.89695
362.77	2.283
362.986	52.86748
363.201	36.00449
363.416	73.9483
363.631	40.22009
363.847	46.54368
364.062	44.4358
364.277	-37.75323
364.492	-1.93175
364.707	71.84011
364.922	84.48956
365.138	19.14299
365.353	17.0354
365.568	-12.46822
365.783	12.82031
365.998	36.00449
366.213	61.29953
366.428	2.283
366.643	69.73195
366.858	19.14299
367.073	-20.89695
367.288	29.68125
367.503	-4.03909
367.718	6.49786
367.933	61.29953
368.148	78.16474
368.363	69.73195
368.578	38.11228
368.793	-18.7898
369.008	12.82031
369.223	-48.28761
369.438	31.78897
369.653	57.08346
369.868	44.4358
370.083	-31.43231
370.298	-20.89695
370.513	-23.00407
370.728	-77.78048
370.943	-52.50118
371.157	-54.60793
371.372	27.57355
371.587	38.11228
371.802	14.92785
372.017	-71.461
372.232	40.22009
372.446	0.17561
372.661	-31.43231
372.876	61.29953
373.091	90.81458
373.306	52.86748
373.52	-14.57544
373.735	19.14299
373.95	69.73195
374.165	4.39042
374.379	128.76891
374.594	-44.07393
374.809	4.39042
375.023	2.283
375.238	31.78897
375.453	38.11228
375.667	12.82031
375.882	36.00449
376.097	97.13981
376.311	63.4076
376.526	19.14299
376.741	54.97546
376.955	40.22009
377.17	10.7128
377.384	38.11228
377.599	88.70622
377.813	57.08346
378.028	61.29953
378.242	38.11228
378.457	19.14299
378.672	122.44269
378.886	63.4076
379.101	12.82031
379.315	8.60532
379.53	44.4358
379.744	27.57355
379.958	21.25059
380.173	40.22009
380.387	-4.03909
380.602	25.46587
380.816	-20.89695
381.031	-39.86016
381.245	29.68125
381.459	-6.14641
381.674	19.14299
381.888	-31.43231
382.103	48.65159
382.317	-1.93175
382.531	4.39042
382.746	33.89672
382.96	40.22009
383.174	46.54368
383.388	65.5157
383.603	46.54368
383.817	52.86748
384.031	14.92785
384.246	21.25059
384.46	-58.82135
384.674	69.73195
384.888	14.92785
385.103	-31.43231
385.317	-14.57544
385.531	-8.2537
385.745	82.38126
385.959	-12.46822
386.174	2.283
386.388	-16.68263
386.602	-10.36097
386.816	82.38126
387.03	23.35822
387.244	-56.71465
387.458	-37.75323
387.672	27.57355
387.887	-10.36097
388.101	86.59788
388.315	-10.36097
388.529	-14.57544
388.743	-6.14641
388.957	21.25059
389.171	-4.03909
389.385	-8.2537
389.599	-18.7898
389.813	17.0354
390.027	-14.57544
390.241	-4.03909
390.455	48.65159
390.669	40.22009
390.883	38.11228
391.097	19.14299
391.311	-20.89695
391.525	27.57355
391.738	-10.36097
391.952	54.97546
392.166	36.00449
392.38	36.00449
392.594	57.08346
392.808	19.14299
393.022	38.11228
393.236	25.46587
393.449	14.92785
393.663	4.39042
393.877	21.25059
394.091	-6.14641
394.305	4.39042
394.518	86.59788
394.732	-12.46822
394.946	50.75953
395.16	-1.93175
395.373	27.57355
395.587	38.11228
395.801	19.14299
396.015	-46.18078
396.228	50.75953
396.442	0.17561
396.656	14.92785
396.869	-6.14641
397.083	63.4076
397.297	10.7128
397.51	27.57355
397.724	10.7128
397.938	-18.7898
398.151	-18.7898
398.365	-6.14641
398.578	78.16474
398.792	-8.2537
399.005	-18.7898
399.219	4.39042
399.433	-10.36097
399.646	-37.75323
399.86	78.16474
400.073	21.25059
400.287	-29.32529
400.5	-31.43231
400.714	8.60532
400.927	8.60532
401.141	-23.00407
401.354	59.19149
401.567	27.57355
401.781	-69.35446
401.994	54.97546
402.208	0.17561
402.421	6.49786
402.635	107.68229
402.848	-31.43231
403.061	-39.86016
403.275	99.24826
403.488	36.00449
403.701	44.4358
403.915	57.08346
404.128	17.0354
404.341	10.7128
404.555	10.7128
404.768	36.00449
404.981	-37.75323
405.195	86.59788
405.408	27.57355
405.621	2.283
405.834	23.35822
406.048	-23.00407
406.261	69.73195
406.474	19.14299
406.687	27.57355
406.9	95.03138
407.114	-20.89695
407.327	10.7128
407.54	71.84011
407.753	8.60532
407.966	-6.14641
408.179	25.46587
408.392	-8.2537
408.605	-6.14641
408.819	40.22009
409.032	-35.64629
409.245	-8.2537
409.458	-27.21824
409.671	31.78897
409.884	-48.28761
410.097	-1.93175
410.31	19.14299
410.523	46.54368
410.736	-14.57544
410.949	38.11228
411.162	-33.53931
411.375	130.87769
411.588	61.29953
411.801	12.82031
412.014	52.86748
412.227	38.11228
412.44	-27.21824
412.653	-6.14641
412.865	46.54368
413.078	88.70622
413.291	50.75953
413.504	21.25059
413.717	78.16474
413.93	19.14299
414.143	-23.00407
414.356	50.75953
414.568	-27.21824
414.781	19.14299
414.994	-18.7898
415.207	71.84011
415.42	44.4358
415.632	44.4358
415.845	-23.00407
416.058	44.4358
416.271	-12.46822
416.483	19.14299
416.696	92.92297
416.909	27.57355
417.121	54.97546
417.334	61.29953
417.547	21.25059
417.759	-6.14641
417.972	33.89672
418.185	-12.46822
418.397	29.68125
418.61	-16.68263
418.823	21.25059
419.035	6.49786
419.248	-12.46822
419.46	52.86748
419.673	-23.00407
419.885	-27.21824
420.098	40.22009
420.311	2.283
420.523	-27.21824
420.736	-71.461
420.948	17.0354
421.161	-20.89695
421.373	8.60532
421.586	10.7128
421.798	76.05651
422.01	-10.36097
422.223	14.92785
422.435	-20.89695
422.648	10.7128
422.86	-1.93175
423.073	27.57355
423.285	48.65159
423.497	82.38126
423.71	78.16474
423.922	-33.53931
424.134	6.49786
424.347	29.68125
424.559	-6.14641
424.771	52.86748
424.984	27.57355
425.196	54.97546
425.408	-37.75323
425.621	-54.60793
425.833	-20.89695
426.045	33.89672
426.257	29.68125
426.47	-58.82135
426.682	-18.7898
426.894	19.14299
427.106	-23.00407
427.318	63.4076
427.531	-39.86016
427.743	-4.03909
427.955	-10.36097
428.167	21.25059
428.379	-33.53931
428.591	23.35822
428.804	27.57355
429.016	-27.21824
429.228	2.283
429.44	4.39042
429.652	6.49786
429.864	14.92785
430.076	10.7128
430.288	61.29953
430.5	61.29953
430.712	40.22009
430.924	-37.75323
431.136	4.39042
431.348	46.54368
431.56	69.73195
431.772	48.65159
431.984	61.29953
432.196	61.29953
432.408	57.08346
432.62	-10.36097
432.832	92.92297
433.044	92.92297
433.256	46.54368
433.468	12.82031
433.679	36.00449
433.891	-10.36097
434.103	-41.96706
434.315	-6.14641
434.527	25.46587
434.739	-27.21824
434.95	0.17561
435.162	2.283
435.374	52.86748
435.586	50.75953
435.798	21.25059
436.009	52.86748
436.221	57.08346
436.433	29.68125
436.645	6.49786
436.856	6.49786
437.068	48.65159
437.28	25.46587
437.491	19.14299
437.703	44.4358
437.915	61.29953
438.126	38.11228
438.338	-4.03909
438.55	27.57355
438.761	78.16474
438.973	6.49786
439.184	-4.03909
439.396	14.92785
439.608	-18.7898
439.819	4.39042
440.031	2.283
440.242	-25.11117
440.454	54.97546
440.665	-25.11117
440.877	21.25059
441.088	-27.21824
441.3	31.78897
441.511	48.65159
441.723	10.7128
441.934	21.25059
442.146	-10.36097
442.357	54.97546
442.569	23.35822
442.78	-6.14641
442.991	31.78897
443.203	-39.86016
443.414	-1.93175
443.626	19.14299
443.837	19.14299
444.048	82.38126
444.26	-12.46822
444.471	40.22009
444.682	50.75953
444.894	23.35822
445.105	-1.93175
445.316	-58.82135
445.528	-27.21824
445.739	-14.57544
445.95	-18.7898
446.161	44.4358
446.373	12.82031
446.584	6.49786
446.795	19.14299
447.006	-46.18078
447.217	31.78897
447.429	38.11228
447.64	63.4076
447.851	8.60532
448.062	63.4076
448.273	59.19149
448.484	-14.57544
448.695	40.22009
448.907	6.49786
449.118	42.32793
449.329	23.35822
449.54	36.00449
449.751	-23.00407
449.962	40.22009
450.173	19.14299
450.384	36.00449
450.595	46.54368
450.806	-27.21824
451.017	71.84011
451.228	19.14299
451.439	61.29953
451.65	73.9483
451.861	-23.00407
452.072	10.7128
452.283	31.78897
452.494	-41.96706
452.705	-31.43231
452.915	57.08346
453.126	19.14299
453.337	61.29953
453.548	19.14299
453.759	42.32793
453.97	71.84011
454.181	95.03138
454.391	71.84011
454.602	40.22009
454.813	4.39042
455.024	-23.00407
455.235	69.73195
455.445	25.46587
455.656	44.4358
455.867	-27.21824
456.078	-1.93175
456.288	21.25059
456.499	-1.93175
456.71	36.00449
456.921	44.4358
457.131	61.29953
457.342	-14.57544
457.553	52.86748
457.763	23.35822
457.974	-14.57544
458.184	95.03138
458.395	-65.14129
458.606	-6.14641
458.816	44.4358
459.027	-14.57544
459.237	71.84011
459.448	25.46587
459.659	-1.93175
459.869	52.86748
460.08	86.59788
460.29	27.57355
460.501	6.49786
460.711	46.54368
460.922	61.29953
461.132	36.00449
461.343	86.59788
461.553	14.92785
461.764	71.84011
461.974	36.00449
462.184	-6.14641
462.395	25.46587
462.605	27.57355
462.816	59.19149
463.026	21.25059
463.236	2.283
463.447	21.25059
463.657	33.89672
463.867	54.97546
464.078	23.35822
464.288	36.00449
464.498	-8.2537
464.709	33.89672
464.919	27.57355
465.129	10.7128
465.339	-6.14641
465.55	59.19149
465.76	27.57355
465.97	50.75953
466.18	44.4358
466.391	-14.57544
466.601	46.54368
466.811	-6.14641
467.021	33.89672
467.231	-48.28761
467.441	19.14299
467.651	27.57355
467.862	6.49786
468.072	57.08346
468.282	27.57355
468.492	44.4358
468.702	109.79086
468.912	44.4358
469.122	44.4358
469.332	2.283
469.542	61.29953
469.752	90.81458
469.962	10.7128
470.172	-35.64629
470.382	52.86748
470.592	90.81458
470.802	27.57355
471.012	10.7128
471.222	-41.96706
471.432	42.32793
471.642	10.7128
471.852	48.65159
472.062	19.14299
472.272	27.57355
472.482	132.98649
472.691	69.73195
472.901	44.4358
473.111	29.68125
473.321	38.11228
473.531	-4.03909
473.741	38.11228
473.95	52.86748
474.16	61.29953
474.37	36.00449
474.58	23.35822
474.79	69.73195
474.999	67.62381
475.209	52.86748
475.419	2.283
475.628	52.86748
475.838	111.89944
476.048	120.334
476.258	19.14299
476.467	105.57375
476.677	107.68229
476.886	107.68229
477.096	50.75953
477.306	50.75953
477.515	-23.00407
477.725	97.13981
477.935	4.39042
478.144	-18.7898
478.354	132.98649
478.563	105.57375
478.773	54.97546
478.982	19.14299
479.192	27.57355
479.401	48.65159
479.611	10.7128
479.82	31.78897
480.03	78.16474
480.239	63.4076
480.449	29.68125
480.658	10.7128
480.868	118.22533
481.077	88.70622
481.287	105.57375
481.496	137.20416
481.705	80.27299
481.915	42.32793
482.124	95.03138
482.333	10.7128
482.543	69.73195
482.752	111.89944
482.961	95.03138
483.171	52.86748
483.38	103.46523
483.589	78.16474
483.799	36.00449
484.008	8.60532
484.217	27.57355
484.426	219.46535
484.636	116.11668
484.845	154.07568
485.054	86.59788
485.263	86.59788
485.472	103.46523
485.682	122.44269
485.891	88.70622
486.1	132.98649
486.309	177.27622
486.518	128.76891
486.727	31.78897
486.936	65.5157
487.146	44.4358
487.355	175.16697
487.564	156.18471
487.773	101.35674
487.982	128.76891
488.191	145.63975
488.4	111.89944
488.609	78.16474
488.818	156.18471
489.027	192.04149
489.236	187.82274
489.445	156.18471
489.654	114.00805
489.863	156.18471
490.072	145.63975
490.281	145.63975
490.49	263.77245
490.698	80.27299
490.907	103.46523
491.116	208.91732
491.325	208.91732
491.534	105.57375
491.743	240.56291
491.952	179.38548
492.16	213.13647
492.369	173.05775
492.578	215.24608
492.787	255.33235
492.996	234.23344
493.204	227.90414
493.413	263.77245
493.622	230.01389
493.831	213.13647
494.039	238.45306
494.248	238.45306
494.457	238.45306
494.665	289.09456
494.874	263.77245
495.083	238.45306
495.291	230.01389
495.5	223.68471
495.709	259.55236
495.917	234.23344
496.126	297.53586
496.335	291.20486
496.543	333.4146
496.752	223.68471
496.96	255.33235
497.169	251.11241
497.377	343.96815
497.586	276.43317
497.794	297.53586
498.003	282.76378
498.211	341.85741
498.42	255.33235
498.628	238.45306
498.837	280.65356
499.045	322.8615
499.254	341.85741
499.462	305.97745
499.671	282.76378
499.879	324.97208
500.087	308.08789
500.296	333.4146
500.504	381.9645
500.713	377.74241
500.921	384.07557
501.129	365.07655
501.338	348.18969
501.546	457.97321
501.754	308.08789
501.962	457.97321
502.171	348.18969
502.379	405.18717
502.587	460.08485
502.795	430.52323
503.004	417.85491
503.212	369.29844
503.42	462.19651
503.628	474.86679
503.837	390.40887
504.045	447.41521
504.253	534.00179
504.461	453.74996
504.669	474.86679
504.877	474.86679
505.085	521.32906
505.294	350.30049
505.502	449.52678
505.71	510.76883
505.918	531.88963
506.126	512.88085
506.334	572.02299
506.542	546.67503
506.75	500.20897
506.958	474.86679
507.166	601.59802
507.374	377.74241
507.582	576.24783
507.79	504.43287
507.998	546.67503
508.206	534.00179
508.414	601.59802
508.622	588.92269
508.83	508.65683
509.037	603.71062
509.245	652.30387
509.453	715.6958
509.661	536.11396
509.869	694.56402
510.077	620.61188
510.285	688.2247
510.492	578.36028
510.7	690.3378
510.908	650.19098
511.116	664.98142
511.324	595.2603
511.531	707.24295
511.739	681.88549
511.947	715.6958
512.155	719.92228
512.362	728.37539
512.57	724.14881
512.778	770.64342
512.985	643.8524
513.193	867.8746
513.401	755.84914
513.608	719.92228
513.816	774.87045
514.024	770.64342
514.231	662.86847
514.439	829.82532
514.646	738.94201
514.854	796.00618
515.061	783.32462
515.269	916.49708
515.477	789.66536
515.684	823.48405
515.892	760.07603
516.099	834.05287
516.307	840.39428
516.514	872.10247
516.722	857.30507
516.929	918.61119
517.136	859.41896
517.344	977.8094
517.551	903.81255
517.759	812.91545
517.966	950.32382
518.173	984.15239
518.381	960.89506
518.588	1043.35637
518.796	872.10247
519.003	1070.8455
519.21	952.43805
519.418	1060.27265
519.625	922.83945
519.832	1037.01286
520.039	1026.44046
520.247	1163.89189
520.454	1017.98265
520.661	1170.23627
520.868	1041.24186
521.076	1199.84382
521.283	1077.18928
521.49	1185.03996
521.697	1104.6795
521.904	1246.3713
522.112	1091.9916
522.319	1102.56484
522.526	1028.55493
522.733	1330.96996
522.94	1111.02352
523.147	1235.79675
523.354	1229.45205
523.561	1288.67019
523.768	1117.36758
523.975	1280.21034
524.183	1043.35637
524.39	1451.52707
524.597	1271.75052
524.804	1286.55522
525.011	1305.59001
525.218	1303.47502
525.425	1341.54501
525.632	1292.90013
525.838	1303.47502
526.045	1436.7217
526.252	1297.13008
526.459	1485.36789
526.666	1324.62495
526.873	1599.57921
527.08	1375.3854
527.287	1512.86348
527.494	1404.99596
527.701	1722.24446
527.907	1557.27913
528.114	1667.25769
528.321	1555.16411
528.528	1629.18883
528.735	1633.41874
528.941	1654.56816
529.148	1548.81904
529.355	1709.55539
529.562	1404.99596
529.768	1652.45323
529.975	1489.59798
530.182	1728.58895
530.388	1595.34923
530.595	1745.50744
530.802	1599.57921
531.008	1696.86621
531.215	1813.17895
531.422	1756.08138
531.628	1720.12963
531.835	1764.54046
532.042	1663.02786
532.248	1836.44003
532.455	1798.37617
532.661	1730.70378
532.868	1650.33829
533.074	1836.44003
533.281	1762.4257
533.487	1988.67897
533.694	1726.47413
533.9	2052.10265
534.107	1804.72024
534.313	2140.88505
534.52	1986.56475
534.726	2096.4955
534.933	1929.47838
535.139	2166.24895
535.345	1838.55465
535.552	2069.01458
535.758	2049.98862
535.965	2187.38464
536.171	2030.96209
536.377	2172.58974
536.584	2166.24895
536.79	2360.66375
536.996	2071.12854
537.203	2263.46601
537.409	2159.90808
537.615	2318.40636
537.821	2117.6338
538.028	2229.65347
538.234	2157.79445
538.44	2305.72839
538.646	2119.74759
538.853	2183.15757
539.059	2225.42674
539.265	2369.11475
539.471	2191.61167
539.677	2400.80455
539.883	2140.88505
540.09	2470.51378
540.296	2413.47982
540.502	2436.71683
540.708	2301.50232
540.914	2443.05397
541.12	2521.20389
541.326	2525.42777
541.532	2428.26715
541.738	2538.09914
541.944	2343.76127
542.15	2571.88739
542.356	2500.0838
542.562	2573.99906
542.768	2398.69197
542.974	2709.12009
543.18	2601.44962
543.386	2677.45572
543.592	2633.12079
543.798	2812.53633
544.004	2493.74755
544.21	2806.20565
544.415	2457.84025
544.621	2928.57616
544.827	2698.56562
545.033	2816.7567
545.239	2719.67423
545.445	2867.39689
545.651	2597.22659
545.856	2839.96779
546.062	2671.1225
546.268	2818.86687
546.474	2624.67541
546.679	2658.45572
546.885	2666.90029
547.091	2894.82358
547.297	2763.99803
547.502	2776.66089
547.708	2742.89219
547.914	2888.49456
548.119	2835.74772
548.325	3004.50564
548.531	2677.45572
548.736	3120.47075
548.942	2791.4336
549.147	2953.88814
549.353	3025.5937
549.559	3213.20815
549.764	2996.06999
549.97	3120.47075
550.175	3046.68022
550.381	3217.42273
550.586	3069.8736
550.792	3390.16234
550.997	3179.48911
551.203	3206.88615
551.408	3373.3148
551.614	3196.34916
551.819	3211.10083
552.025	3362.78452
552.23	3181.59667
552.435	3375.4208
552.641	3137.33443
552.846	3354.35998
553.052	3297.48709
553.257	3373.3148
553.462	3324.8719
553.668	3333.29741
553.873	3356.46614
554.078	3415.43154
554.283	3468.06746
554.489	3672.1866
554.694	3411.22018
554.899	3686.91002
555.105	3533.32034
555.31	3457.54117
555.515	3482.80351
555.72	3625.90693
555.925	3487.01365
556.131	3604.86769
556.336	3495.4337
556.541	3628.01075
556.746	3487.01365
556.951	3632.21833
557.156	3474.38302
557.361	3920.25386
557.567	3577.51389
557.772	3802.56113
557.977	3644.84063
558.182	3741.58876
558.387	3678.49675
558.592	3993.77982
558.797	3609.07569
559.002	3815.17404
559.207	3905.5457
559.412	3916.05163
559.617	3756.30773
559.822	3878.22792
560.027	3651.15152
560.232	3939.16291
560.437	3541.73879
560.642	3834.09208
560.847	3844.60141
561.051	3962.27174
561.256	3583.82659
561.461	3853.00851
561.666	3987.47857
561.871	3863.51695
562.076	3739.48598
562.281	4004.28149
562.485	3928.65809
562.69	4025.28329
562.895	3880.32941
563.1	4147.05294
563.305	3802.56113
563.509	4121.86497
563.714	3855.11024
563.919	4230.99091
564.123	4029.48341
564.328	4216.30421
564.533	4012.68246
564.737	4304.40871
564.942	3899.2419
565.147	4371.51049
565.351	4149.1518
565.556	4216.30421
565.761	4304.40871
565.965	4134.45933
566.17	4023.1832
566.374	4172.23788
566.579	4203.71478
566.784	4335.86542
566.988	4182.73071
567.193	4574.77608
567.397	4235.18692
567.602	4449.06918
567.806	4390.37886
568.011	4411.34166
568.215	4306.50597
568.42	4604.0962
568.624	4413.43782
568.828	4597.81369
569.033	4407.14927
569.237	4704.58904
569.442	4545.45159
569.646	4532.88263
569.85	4524.50287
570.055	4602.00205
570.259	4459.54779
570.463	4451.16495
570.668	4549.64107
570.872	4754.81601
571.076	4459.54779
571.281	4576.87052
571.485	4375.70361
571.689	4830.13198
571.893	4566.3981
572.098	4616.66063
572.302	4645.9745
572.506	4911.69095
572.71	4534.97751
572.914	4645.9745
573.119	4685.75057
573.323	4696.21661
573.527	4574.77608
573.731	4660.62978
573.935	4838.4986
574.139	4746.44575
574.343	4505.64713
574.547	4727.61135
574.751	4629.22425
574.955	4930.50731
575.159	4746.44575
575.364	4884.50849
575.568	4869.87018
575.772	4938.86954
575.976	4838.4986
576.18	4800.84593
576.383	4685.75057
576.587	4943.05051
576.791	4909.60013
576.995	4995.30495
577.199	4796.66185
577.403	5055.90204
577.607	4846.86486
577.811	5120.65671
578.015	4978.5851
578.219	5060.08043
578.422	4869.87018
578.626	5268.88159
578.83	4865.6876
579.034	5070.52601
579.238	4955.59289
579.442	5093.50424
579.645	4978.5851
579.849	5327.3041
580.053	5162.42208
580.257	5210.44074
580.46	5227.13999
