Data from mixed_try1_USB4F045381__22__00247.txt Node

Date: Thu Apr 03 20:25:39 EDT 2025
User: mmckonesweet
Spectrometer: USB4F04538
Trigger mode: 4
Integration Time (sec): 2.700000E-3
Scans to average: 1
Electric dark correction enabled: true
Nonlinearity correction enabled: true
Boxcar width: 0
XAxis mode: Wavelengths
Number of Pixels in Spectrum: 3648
>>>>>Begin Spectral Data<<<<<
345.52	-108.14586
345.736	-108.14586
345.952	-108.14586
346.168	24.58768
346.384	-57.59244
346.6	-0.70246
346.816	-36.52418
347.032	1.40492
347.248	47.77329
347.464	-25.98912
347.68	16.15725
347.896	-25.98912
348.112	54.09713
348.328	-9.13173
348.544	60.42118
348.76	-82.87101
348.975	1.40492
349.191	-4.91714
349.407	-17.56062
349.623	102.58669
349.839	20.37242
350.055	-28.09618
350.27	58.31314
350.486	14.04971
350.702	-47.05863
350.918	-84.97739
351.133	45.6654
351.349	5.61975
351.565	28.80304
351.781	-28.09618
351.996	-9.13173
352.212	-4.91714
352.428	49.88122
352.644	-47.05863
352.859	24.58768
353.075	-25.98912
353.291	-32.31023
353.506	-11.23899
353.722	3.51233
353.938	1.40492
354.153	-42.84492
354.369	16.15725
354.584	-7.02445
354.8	-38.63112
355.016	-51.27223
355.231	-40.73804
355.447	-25.98912
355.662	66.74543
355.878	-32.31023
356.093	-4.91714
356.309	-49.16544
356.524	-49.16544
356.74	-59.69913
356.955	-0.70246
357.171	60.42118
357.386	-17.56062
357.602	49.88122
357.817	-66.01904
358.033	-38.63112
358.248	-84.97739
358.464	-17.56062
358.679	79.39455
358.895	-25.98912
359.11	24.58768
359.325	-4.91714
359.541	-59.69913
359.756	49.88122
359.972	-17.56062
360.187	11.94218
360.402	-42.84492
360.618	14.04971
360.833	66.74543
361.048	75.17808
361.264	26.69535
361.479	70.96171
361.694	-21.77492
361.909	-23.88203
362.125	-38.63112
362.34	7.72721
362.555	20.37242
362.77	-0.70246
362.986	-53.37899
363.201	35.12624
363.416	37.23403
363.631	-7.02445
363.847	-13.34623
364.062	-49.16544
364.277	54.09713
364.492	66.74543
364.707	11.94218
364.922	18.26482
365.138	-59.69913
365.353	-47.05863
365.568	-17.56062
365.783	-44.95179
365.998	45.6654
366.213	-49.16544
366.428	16.15725
366.643	3.51233
366.858	-74.44523
367.073	-51.27223
367.288	-80.7646
367.503	9.83468
367.718	41.44967
367.933	-4.91714
368.148	-42.84492
368.363	-55.48573
368.578	-70.23219
368.793	-15.45344
369.008	-95.5089
369.223	-7.02445
369.438	-19.66778
369.653	-2.80981
369.868	-40.73804
370.083	-40.73804
370.298	1.40492
370.513	30.91075
370.728	1.40492
370.943	7.72721
371.157	43.55752
371.372	33.01848
371.587	-42.84492
371.802	-21.77492
372.017	-53.37899
372.232	18.26482
372.446	-9.13173
372.661	37.23403
372.876	-32.31023
373.091	-17.56062
373.306	-13.34623
373.52	-25.98912
373.735	18.26482
373.95	1.40492
374.165	-7.02445
374.379	-42.84492
374.594	22.48004
374.809	-38.63112
375.023	-9.13173
375.238	-11.23899
375.453	33.01848
375.667	60.42118
375.882	-7.02445
376.097	28.80304
376.311	49.88122
376.526	-74.44523
376.741	-2.80981
376.955	1.40492
377.17	-70.23219
377.384	-42.84492
377.599	-13.34623
377.813	-23.88203
378.028	-36.52418
378.242	7.72721
378.457	-23.88203
378.672	30.91075
378.886	9.83468
379.101	60.42118
379.315	-2.80981
379.53	66.74543
379.744	26.69535
379.958	-25.98912
380.173	-7.02445
380.387	28.80304
380.602	-49.16544
380.816	41.44967
381.031	11.94218
381.245	-47.05863
381.459	-11.23899
381.674	-21.77492
381.888	-25.98912
382.103	70.96171
382.317	-25.98912
382.531	-55.48573
382.746	1.40492
382.96	-32.31023
383.174	-34.41722
383.388	-21.77492
383.603	26.69535
383.817	-21.77492
384.031	33.01848
384.246	-42.84492
384.46	-25.98912
384.674	7.72721
384.888	26.69535
385.103	-23.88203
385.317	51.98916
385.531	20.37242
385.745	-42.84492
385.959	-17.56062
386.174	28.80304
386.388	54.09713
386.602	5.61975
386.816	-57.59244
387.03	-13.34623
387.244	16.15725
387.458	41.44967
387.672	-25.98912
387.887	16.15725
388.101	7.72721
388.315	16.15725
388.529	-23.88203
388.743	-7.02445
388.957	-7.02445
389.171	7.72721
389.385	-25.98912
389.599	-4.91714
389.813	-34.41722
390.027	-68.12563
390.241	28.80304
390.455	66.74543
390.669	-38.63112
390.883	-15.45344
391.097	51.98916
391.311	-0.70246
391.525	-9.13173
391.738	49.88122
391.952	-0.70246
392.166	-36.52418
392.38	16.15725
392.594	28.80304
392.808	11.94218
393.022	22.48004
393.236	-42.84492
393.449	-2.80981
393.663	-30.20322
393.877	-13.34623
394.091	1.40492
394.305	7.72721
394.518	39.34183
394.732	-49.16544
394.946	-19.66778
395.16	26.69535
395.373	37.23403
395.587	-13.34623
395.801	3.51233
396.015	33.01848
396.228	-23.88203
396.442	-57.59244
396.656	16.15725
396.869	33.01848
397.083	49.88122
397.297	54.09713
397.51	14.04971
397.724	37.23403
397.938	39.34183
398.151	-28.09618
398.365	-34.41722
398.578	-49.16544
398.792	24.58768
399.005	-9.13173
399.219	-13.34623
399.433	9.83468
399.646	54.09713
399.86	33.01848
400.073	16.15725
400.287	7.72721
400.5	-0.70246
400.714	-19.66778
400.927	35.12624
401.141	37.23403
401.354	-59.69913
401.567	-9.13173
401.781	-34.41722
401.994	-25.98912
402.208	-66.01904
402.421	7.72721
402.635	7.72721
402.848	-51.27223
403.061	7.72721
403.275	-17.56062
403.488	-80.7646
403.701	-9.13173
403.915	-25.98912
404.128	62.52924
404.341	-21.77492
404.555	-55.48573
404.768	-49.16544
404.981	-15.45344
405.195	7.72721
405.408	-51.27223
405.621	-13.34623
405.834	-59.69913
406.048	-2.80981
406.261	-47.05863
406.474	-25.98912
406.687	39.34183
406.9	-63.91243
407.114	-57.59244
407.327	58.31314
407.54	-13.34623
407.753	16.15725
407.966	-40.73804
408.179	30.91075
408.392	9.83468
408.605	-7.02445
408.819	-25.98912
409.032	-53.37899
409.245	-19.66778
409.458	22.48004
409.671	9.83468
409.884	-0.70246
410.097	30.91075
410.31	-7.02445
410.523	51.98916
410.736	75.17808
410.949	43.55752
411.162	24.58768
411.375	-38.63112
411.588	-57.59244
411.801	11.94218
412.014	35.12624
412.227	33.01848
412.44	1.40492
412.653	-40.73804
412.865	18.26482
413.078	-2.80981
413.291	-25.98912
413.504	117.34672
413.717	-9.13173
413.93	-13.34623
414.143	33.01848
414.356	-66.01904
414.568	26.69535
414.781	-15.45344
414.994	-34.41722
415.207	-21.77492
415.42	7.72721
415.632	9.83468
415.845	62.52924
416.058	43.55752
416.271	-17.56062
416.483	24.58768
416.696	-11.23899
416.909	33.01848
417.121	66.74543
417.334	-2.80981
417.547	51.98916
417.759	-0.70246
417.972	16.15725
418.185	-30.20322
418.397	41.44967
418.61	-72.33872
418.823	-15.45344
419.035	-23.88203
419.248	-28.09618
419.46	43.55752
419.673	66.74543
419.885	-47.05863
420.098	28.80304
420.311	-76.55171
420.523	7.72721
420.736	35.12624
420.948	24.58768
421.161	9.83468
421.373	33.01848
421.586	-13.34623
421.798	-17.56062
422.01	-17.56062
422.223	-40.73804
422.435	-63.91243
422.648	-47.05863
422.86	3.51233
423.073	-15.45344
423.285	-25.98912
423.497	33.01848
423.71	-30.20322
423.922	-2.80981
424.134	-34.41722
424.347	75.17808
424.559	-28.09618
424.771	-25.98912
424.984	-17.56062
425.196	-59.69913
425.408	70.96171
425.621	-9.13173
425.833	-32.31023
426.045	-7.02445
426.257	-30.20322
426.47	-2.80981
426.682	66.74543
426.894	41.44967
427.106	43.55752
427.318	-0.70246
427.531	1.40492
427.743	-114.46398
427.955	24.58768
428.167	-9.13173
428.379	-13.34623
428.591	66.74543
428.804	-25.98912
429.016	-4.91714
429.228	41.44967
429.44	7.72721
429.652	41.44967
429.864	-23.88203
430.076	-44.95179
430.288	37.23403
430.5	-97.61513
430.712	43.55752
430.924	14.04971
431.136	-38.63112
431.348	-17.56062
431.56	20.37242
431.772	47.77329
431.984	14.04971
432.196	81.50281
432.408	66.74543
432.62	20.37242
432.832	3.51233
433.044	9.83468
433.256	24.58768
433.468	-51.27223
433.679	-0.70246
433.891	-7.02445
434.103	11.94218
434.315	7.72721
434.527	-28.09618
434.739	7.72721
434.95	-23.88203
435.162	-21.77492
435.374	35.12624
435.586	3.51233
435.798	-34.41722
436.009	-21.77492
436.221	-21.77492
436.433	-17.56062
436.645	41.44967
436.856	18.26482
437.068	18.26482
437.28	-66.01904
437.491	41.44967
437.703	-40.73804
437.915	-0.70246
438.126	41.44967
438.338	-11.23899
438.55	49.88122
438.761	-38.63112
438.973	37.23403
439.184	49.88122
439.396	33.01848
439.608	54.09713
439.819	-55.48573
440.031	94.15287
440.242	-51.27223
440.454	41.44967
440.665	-32.31023
440.877	24.58768
441.088	14.04971
441.3	-34.41722
441.511	-0.70246
441.723	1.40492
441.934	-47.05863
442.146	66.74543
442.357	3.51233
442.569	-2.80981
442.78	7.72721
442.991	-21.77492
443.203	-28.09618
443.414	7.72721
443.626	-82.87101
443.837	49.88122
444.048	9.83468
444.26	-40.73804
444.471	-0.70246
444.682	-0.70246
444.894	-25.98912
445.105	-42.84492
445.316	28.80304
445.528	-34.41722
445.739	49.88122
445.95	-9.13173
446.161	9.83468
446.373	-68.12563
446.584	1.40492
446.795	-7.02445
447.006	-15.45344
447.217	-7.02445
447.429	-7.02445
447.64	11.94218
447.851	60.42118
448.062	-25.98912
448.273	-40.73804
448.484	49.88122
448.695	58.31314
448.907	-21.77492
449.118	35.12624
449.329	24.58768
449.54	-51.27223
449.751	-30.20322
449.962	-15.45344
450.173	35.12624
450.384	30.91075
450.595	77.2863
450.806	43.55752
451.017	-38.63112
451.228	104.6952
451.439	11.94218
451.65	-30.20322
451.861	28.80304
452.072	1.40492
452.283	33.01848
452.494	64.63732
452.705	113.12946
452.915	-49.16544
453.126	-0.70246
453.337	22.48004
453.548	35.12624
453.759	33.01848
453.97	33.01848
454.181	49.88122
454.391	85.71941
454.602	66.74543
454.813	24.58768
455.024	60.42118
455.235	3.51233
455.445	-9.13173
455.656	-25.98912
455.867	-59.69913
456.078	33.01848
456.288	-25.98912
456.499	41.44967
456.71	30.91075
456.921	3.51233
457.131	20.37242
457.342	3.51233
457.553	33.01848
457.763	9.83468
457.974	-25.98912
458.184	43.55752
458.395	-34.41722
458.606	108.91229
458.816	5.61975
459.027	94.15287
459.237	7.72721
459.448	-9.13173
459.659	41.44967
459.869	-9.13173
460.08	3.51233
460.29	7.72721
460.501	7.72721
460.711	58.31314
460.922	26.69535
461.132	134.21663
461.343	45.6654
461.553	-34.41722
461.764	7.72721
461.974	49.88122
462.184	-32.31023
462.395	58.31314
462.605	87.82774
462.816	-9.13173
463.026	11.94218
463.236	11.94218
463.447	45.6654
463.657	16.15725
463.867	41.44967
464.078	43.55752
464.288	16.15725
464.498	-9.13173
464.709	-47.05863
464.919	49.88122
465.129	62.52924
465.339	85.71941
465.55	54.09713
465.76	70.96171
465.97	-9.13173
466.18	37.23403
466.391	16.15725
466.601	79.39455
466.811	77.2863
467.021	79.39455
467.231	30.91075
467.441	56.20513
467.651	60.42118
467.862	16.15725
468.072	-0.70246
468.282	43.55752
468.492	7.72721
468.702	49.88122
468.912	20.37242
469.122	49.88122
469.332	1.40492
469.542	73.06989
469.752	161.63315
469.962	113.12946
470.172	64.63732
470.382	49.88122
470.592	60.42118
470.802	49.88122
471.012	37.23403
471.222	26.69535
471.432	60.42118
471.642	33.01848
471.852	33.01848
472.062	66.74543
472.272	43.55752
472.482	30.91075
472.691	83.6111
472.901	96.26129
473.111	26.69535
473.321	96.26129
473.531	70.96171
473.741	68.85356
473.95	66.74543
474.16	85.71941
474.37	87.82774
474.58	115.23808
474.79	121.56407
474.999	106.80373
475.209	134.21663
475.419	210.14789
475.628	96.26129
475.838	100.4782
476.048	193.27198
476.258	155.30595
476.467	92.04447
476.677	176.39736
476.886	100.4782
477.096	117.34672
477.306	159.52406
477.515	104.6952
477.725	159.52406
477.935	129.99903
478.144	108.91229
478.354	151.08791
478.563	167.96055
478.773	199.6003
478.982	184.83451
479.192	254.45319
479.401	222.80567
479.611	182.72519
479.82	277.66411
480.03	237.57397
480.239	246.01343
480.449	144.76102
480.658	302.98769
480.868	302.98769
481.077	186.94385
481.287	222.80567
481.496	220.69599
481.705	279.77431
481.915	378.97385
482.124	319.87153
482.333	347.3102
482.543	273.44377
482.752	349.42099
482.961	302.98769
483.171	389.52924
483.38	298.76691
483.589	404.30748
483.799	395.86267
484.008	362.08609
484.217	364.197
484.426	391.64037
484.636	416.97519
484.845	416.97519
485.054	471.87515
485.263	501.44093
485.472	459.205
485.682	412.75256
485.891	425.42065
486.1	509.88883
486.309	524.6732
486.518	706.36246
486.727	492.99327
486.936	558.46863
487.146	488.76953
487.355	623.95701
487.564	588.04248
487.773	710.58885
487.982	533.12172
488.191	651.4235
488.4	727.49485
488.609	645.0849
488.818	617.61889
489.027	683.11811
489.236	716.92852
489.445	793.01189
489.654	771.8763
489.863	839.51352
490.072	704.24928
490.281	754.96854
490.49	828.94458
490.698	780.33042
490.907	820.48959
491.116	987.5001
491.325	883.90545
491.534	871.22166
491.743	879.67749
491.952	947.32867
492.16	951.55712
492.369	1042.47532
492.578	1004.41511
492.787	1021.33052
492.996	1023.44497
493.204	1148.20733
493.413	1078.42279
493.622	1012.87276
493.831	1152.43685
494.039	1160.89594
494.248	1091.1105
494.457	1249.71993
494.665	1055.16249
494.874	1361.81396
495.083	1220.11129
495.291	1308.93873
495.5	1258.17964
495.709	1323.74369
495.917	1378.73421
496.126	1397.76956
496.335	1325.8587
496.543	1478.14147
496.752	1317.3987
496.96	1507.75213
497.169	1427.38022
497.377	1554.28285
497.586	1342.77877
497.794	1497.1769
498.003	1372.38911
498.211	1492.94681
498.42	1501.40699
498.628	1630.42255
498.837	1448.53074
499.045	1774.23309
499.254	1683.29571
499.462	1748.85587
499.671	1685.4106
499.879	1725.59295
500.087	1651.57201
500.296	1994.14069
500.504	1632.53751
500.713	1624.07767
500.921	1824.98578
501.129	1837.67356
501.338	1698.09988
501.546	1824.98578
501.754	1710.78906
501.962	1924.36859
502.171	1685.4106
502.379	2023.73892
502.587	1981.45535
502.795	2034.30939
503.004	1875.73586
503.212	1926.48299
503.42	1956.08399
503.628	2129.43569
503.837	1886.30843
504.045	2140.00434
504.253	2116.75305
504.461	2154.80011
504.669	1913.7965
504.877	2220.3194
505.085	2167.48189
505.294	2334.42942
505.502	2125.20818
505.71	2437.94905
505.918	2171.70908
506.126	2380.91067
506.334	2239.33959
506.542	2429.49941
506.75	2112.52545
506.958	2528.77164
507.166	2275.26463
507.374	2437.94905
507.582	2391.47391
507.79	2309.074
507.998	2357.67065
508.206	2590.01213
508.414	2448.51087
508.622	2676.57611
508.83	2349.21943
509.037	2585.78897
509.245	2507.65196
509.453	2663.90953
509.661	2600.56982
509.869	2661.79838
510.077	2520.32391
510.285	2742.01275
510.492	2442.17381
510.7	2817.98764
510.908	2611.12721
511.116	2649.13126
511.324	2619.5729
511.531	2547.77837
511.739	2611.12721
511.947	2754.67645
512.155	2630.12974
512.362	2965.66451
512.57	2733.57002
512.778	2602.68133
512.985	2792.66463
513.193	2910.82136
513.401	3003.62694
513.608	2957.22775
513.816	2695.57513
514.024	2771.56063
514.231	2931.91606
514.439	3050.01877
514.646	3033.14988
514.854	3001.51805
515.061	2788.44394
515.269	3123.80843
515.477	3035.25854
515.684	3121.70043
515.892	3123.80843
516.099	2912.9309
516.307	3286.07589
516.514	3208.11544
516.722	3195.47105
516.929	3212.3301
517.136	3239.72379
517.344	3290.28932
517.551	3199.68592
517.759	3361.90697
517.966	3130.13236
518.173	3450.34795
518.381	3475.61103
518.588	3471.40069
518.796	3408.23709
519.003	3641.86043
519.21	3475.61103
519.418	3784.86682
519.625	3458.76926
519.832	3591.36653
520.039	3374.5433
520.247	3564.01117
520.454	3614.51091
520.661	3742.81538
520.868	3551.38456
521.076	3803.78741
521.283	3709.16864
521.49	3829.01239
521.697	3650.27502
521.904	3816.40026
522.112	3753.32897
522.319	3850.03103
522.526	3616.61483
522.733	3942.48933
522.94	3660.79284
523.147	3816.40026
523.354	3582.94983
523.561	4068.50552
523.768	3883.65672
523.975	3877.3523
524.183	3883.65672
524.39	4135.68374
524.597	3984.50292
524.804	4228.01869
525.011	4026.50833
525.218	4290.95074
525.425	4135.68374
525.632	4253.19382
525.838	4043.3082
526.045	4345.47623
526.252	4148.27728
526.459	4219.62629
526.666	4106.2959
526.873	4320.31243
527.08	4013.90757
527.287	4475.43929
527.494	4244.80245
527.701	4452.38747
527.907	4324.50661
528.114	4559.24163
528.321	4427.23699
528.528	4290.95074
528.735	4393.69812
528.941	4682.78509
529.148	4372.73349
529.355	4655.57034
529.562	4353.86347
529.768	4680.69178
529.975	4458.67459
530.182	4575.99784
530.388	4508.96447
530.595	4712.08903
530.802	4517.34488
531.008	4864.81622
531.215	4745.57383
531.422	4718.36787
531.628	4774.86827
531.835	4831.35214
532.042	4601.12948
532.248	4883.6372
532.455	4722.55365
532.661	5107.25502
532.868	4785.3295
533.074	4871.09009
533.281	4766.49888
533.487	5082.18955
533.694	4845.99339
533.9	5215.83337
534.107	5065.47739
534.313	5238.7938
534.52	5184.51915
534.726	5238.7938
534.933	5059.20994
535.139	5140.67044
535.345	5309.7445
535.552	5393.18126
535.758	5207.48343
535.965	5391.0958
536.171	5226.27028
536.377	5459.90362
536.584	5441.14039
536.79	5386.92481
536.996	5441.14039
537.203	5386.92481
537.409	5407.77883
537.615	5574.5264
537.821	5359.81106
538.028	5484.9183
538.234	5553.69119
538.44	5682.83146
538.646	5309.7445
538.853	5549.52387
539.059	5491.17144
539.265	5507.84545
539.471	5466.15761
539.677	5728.63362
539.883	5541.18894
540.09	5849.33003
540.296	5880.5317
540.502	5901.32986
540.708	5782.74873
540.914	5857.65099
541.12	5803.55798
541.326	6163.18481
541.532	5716.14325
541.738	5936.68132
541.944	5786.91077
542.15	6125.79983
542.356	5807.71955
542.562	6065.55246
542.768	5853.49056
542.974	6019.83436
543.18	6023.99102
543.386	6048.92902
543.592	5932.52268
543.798	6206.791
544.004	6190.18034
544.21	6300.19803
544.415	6136.18531
544.621	6206.791
544.827	6023.99102
545.033	6526.25469
545.239	6435.03574
545.445	6275.29413
545.651	6109.18184
545.856	6335.4728
546.062	6408.07608
546.268	6347.92111
546.474	6117.49103
546.679	6312.64872
546.885	6219.24801
547.091	6335.4728
547.297	6073.86362
547.502	6553.19715
547.708	6368.66642
547.914	6555.26949
548.119	6439.18304
548.325	6393.55771
548.531	6627.78665
548.736	6783.08566
548.942	6571.84733
549.147	6586.35174
549.353	6497.23535
549.559	6691.99256
549.764	6613.28548
549.97	6613.28548
550.175	6716.84054
550.381	6996.15388
550.586	6828.61561
550.792	7128.42526
550.997	6894.82133
551.203	6961.00383
551.408	6861.72138
551.614	6996.15388
551.819	6694.06335
552.025	7080.90079
552.23	6774.8063
552.435	6981.68112
552.641	7134.62324
552.846	7303.95728
553.052	6936.18811
553.257	7303.95728
553.462	7178.00345
553.668	7237.89338
553.873	7144.95275
554.078	7332.85316
554.283	7227.56886
554.489	7287.44341
554.694	7384.44228
554.899	7213.1136
555.105	7394.75846
555.31	7258.54077
555.515	7423.6409
555.72	7316.34175
555.925	7332.85316
556.131	7621.57789
556.336	7275.0571
556.541	7398.88479
556.746	7066.43447
556.951	7561.80528
557.156	7289.50772
557.361	7679.2724
557.567	7631.8817
557.772	7644.24557
557.977	7427.76661
558.182	7436.01778
558.387	7638.06373
558.592	7681.33261
558.797	7998.35575
559.002	7930.46353
559.207	7436.01778
559.412	7813.14235
559.617	7642.18498
559.822	8000.41274
560.027	7673.09164
560.232	7652.48773
560.437	7648.36669
560.642	7961.32639
560.847	7864.60728
561.051	7988.07048
561.256	7918.11709
561.461	7996.29874
561.666	7743.12913
561.871	8064.16945
562.076	7745.18869
562.281	8000.41274
562.485	7955.15419
562.69	8107.34843
562.895	7883.13149
563.1	7946.9243
563.305	8199.84505
563.509	8267.65033
563.714	8004.52667
563.919	8388.82472
564.123	7938.69408
564.328	8360.07761
564.533	8208.06502
564.737	8189.56964
564.942	7934.57884
565.147	8444.25489
565.351	8263.54153
565.556	8222.4492
565.761	8230.6683
565.965	8164.90663
566.17	7979.8419
566.374	8146.40749
566.579	8208.06502
566.784	8191.62476
566.988	8464.78103
567.193	8349.80986
567.397	8242.99636
567.602	8436.0439
567.806	8214.22979
568.011	8505.82758
568.215	8321.05759
568.42	8581.74368
568.624	8684.2922
568.828	8641.2275
569.033	8310.78799
569.237	8680.19116
569.442	8544.81475
569.646	8553.02171
569.85	8345.70263
570.055	8876.95887
570.259	8495.56666
570.463	8739.64914
570.668	8470.9385
570.872	8386.77148
571.076	8661.73552
571.281	8567.38316
571.485	8589.94928
571.689	8774.49664
571.893	8772.44693
572.098	8870.81241
572.302	8909.73729
572.506	8977.32839
572.71	8692.49408
572.914	9071.51433
573.119	8784.7449
573.323	9005.99759
573.527	8872.86125
573.731	9108.35968
573.935	8893.34865
574.139	9128.8269
574.343	8774.49664
574.547	8958.89637
574.751	8997.80674
574.955	9083.79673
575.159	8944.55936
575.364	9319.09078
575.568	9116.54677
575.772	9331.3609
575.976	9169.75621
576.18	9120.64022
576.383	9024.42598
576.587	9315.00061
576.791	9083.79673
