Data from mixed_try1_USB4F045381__19__00244.txt Node

Date: Thu Apr 03 20:25:19 EDT 2025
User: mmckonesweet
Spectrometer: USB4F04538
Trigger mode: 4
Integration Time (sec): 2.700000E-3
Scans to average: 1
Electric dark correction enabled: true
Nonlinearity correction enabled: true
Boxcar width: 0
XAxis mode: Wavelengths
Number of Pixels in Spectrum: 3648
>>>>>Begin Spectral Data<<<<<
345.52	5.26851
345.736	5.26851
345.952	5.26851
346.168	-53.73012
346.384	-32.6614
346.6	-11.5902
346.816	11.59093
347.032	-3.16104
347.248	5.26851
347.464	32.66719
347.68	-64.26353
347.896	32.66719
348.112	-30.55439
348.328	64.28597
348.544	22.12877
348.76	-53.73012
348.975	-5.26836
349.191	11.59093
349.407	30.55946
349.623	22.12877
349.839	-5.26836
350.055	-20.01897
350.27	-32.6614
350.486	-41.08919
350.702	-38.98228
350.918	-36.87534
351.133	9.48343
351.349	-22.12611
351.565	-3.16104
351.781	-41.08919
351.996	55.85379
352.212	-91.64742
352.428	-17.91182
352.644	64.28597
352.859	-26.3403
353.075	38.99053
353.291	32.66719
353.506	-30.55439
353.722	-28.44736
353.938	-49.51657
354.153	81.15143
354.369	1.05369
354.584	30.55946
354.8	-7.37567
355.016	-20.01897
355.231	-41.08919
355.447	-13.69743
355.662	-11.5902
355.878	13.69845
356.093	-32.6614
356.309	38.99053
356.524	-9.48295
356.74	-3.16104
356.955	-7.37567
357.171	1.05369
357.386	9.48343
357.602	49.5299
357.817	-1.05368
358.033	-24.23321
358.248	-24.23321
358.464	13.69845
358.679	-45.30293
358.895	28.45175
359.11	-24.23321
359.325	1.05369
359.541	-57.94356
359.756	5.26851
359.972	17.91356
360.187	-38.98228
360.402	47.42198
360.618	5.26851
360.833	-20.01897
361.048	-26.3403
361.264	26.34407
361.479	-20.01897
361.694	43.20621
361.909	62.17789
362.125	-7.37567
362.34	20.02115
362.555	32.66719
362.77	13.69845
362.986	5.26851
363.201	-20.01897
363.416	-34.76838
363.631	5.26851
363.847	9.48343
364.062	-13.69743
364.277	32.66719
364.492	7.37596
364.707	-34.76838
364.922	-20.01897
365.138	-47.40976
365.353	-43.19607
365.568	-3.16104
365.783	-9.48295
365.998	-53.73012
366.213	-15.80464
366.428	-32.6614
366.643	28.45175
366.858	22.12877
367.073	81.15143
367.288	-66.37014
367.503	30.55946
367.718	-68.47672
367.933	55.85379
368.148	-20.01897
368.363	83.25972
368.578	43.20621
368.793	-74.79631
369.008	-17.91182
369.223	5.26851
369.438	41.09836
369.653	-100.07236
369.868	24.2364
370.083	1.05369
370.298	57.9618
370.513	47.42198
370.728	-20.01897
370.943	13.69845
371.157	-60.05024
371.372	9.48343
371.587	-30.55439
371.802	-1.05368
372.017	32.66719
372.232	13.69845
372.446	24.2364
372.661	38.99053
372.876	-36.87534
373.091	17.91356
373.306	-26.3403
373.52	-15.80464
373.735	-7.37567
373.95	9.48343
374.165	49.5299
374.379	7.37596
374.594	-5.26836
374.809	64.28597
375.023	-32.6614
375.238	38.99053
375.453	15.80599
375.667	-45.30293
375.882	-68.47672
376.097	24.2364
376.311	13.69845
376.526	45.31408
376.741	-9.48295
376.955	9.48343
377.17	51.63784
377.384	-53.73012
377.599	-45.30293
377.813	-91.64742
378.028	1.05369
378.242	-5.26836
378.457	-24.23321
378.672	-79.00925
378.886	17.91356
379.101	60.06984
379.315	68.5022
379.53	-45.30293
379.744	-9.48295
379.958	-1.05368
380.173	60.06984
380.387	17.91356
380.602	17.91356
380.816	-24.23321
381.031	34.77495
381.245	24.2364
381.459	7.37596
381.674	-24.23321
381.888	-20.01897
382.103	-68.47672
382.317	-5.26836
382.531	5.26851
382.746	-87.4348
382.96	-3.16104
383.174	38.99053
383.388	-32.6614
383.603	30.55946
383.817	22.12877
384.031	5.26851
384.246	47.42198
384.46	-104.28467
384.674	24.2364
384.888	-49.51657
385.103	38.99053
385.317	55.85379
385.531	-5.26836
385.745	38.99053
385.959	32.66719
386.174	-20.01897
386.388	85.36802
386.602	-41.08919
386.816	38.99053
387.03	28.45175
387.244	-3.16104
387.458	-30.55439
387.672	-20.01897
387.887	-28.44736
388.101	5.26851
388.315	30.55946
388.529	22.12877
388.743	-34.76838
388.957	-93.7537
389.171	-7.37567
389.385	81.15143
389.599	-41.08919
389.813	22.12877
390.027	13.69845
390.241	-53.73012
390.455	-32.6614
390.669	-3.16104
390.883	5.26851
391.097	-17.91182
391.311	-87.4348
391.525	-24.23321
391.738	-20.01897
391.952	49.5299
392.166	-100.07236
392.38	-9.48295
392.594	20.02115
392.808	-87.4348
393.022	-9.48295
393.236	24.2364
393.449	-79.00925
393.663	32.66719
393.877	24.2364
394.091	-1.05368
394.305	51.63784
394.518	28.45175
394.732	17.91356
394.946	-20.01897
395.16	1.05369
395.373	-30.55439
395.587	38.99053
395.801	47.42198
396.015	-36.87534
396.228	32.66719
396.442	-51.62336
396.656	81.15143
396.869	3.16109
397.083	1.05369
397.297	-41.08919
397.51	24.2364
397.724	5.26851
397.938	-17.91182
398.151	-53.73012
398.365	22.12877
398.578	13.69845
398.792	-34.76838
399.005	-93.7537
399.219	30.55946
399.433	5.26851
399.646	-17.91182
399.86	-26.3403
400.073	-28.44736
400.287	49.5299
400.5	-11.5902
400.714	17.91356
400.927	24.2364
401.141	30.55946
401.354	-60.05024
401.567	-49.51657
401.781	-26.3403
401.994	-36.87534
402.208	5.26851
402.421	5.26851
402.635	-41.08919
402.848	-41.08919
403.061	7.37596
403.275	-17.91182
403.488	53.7458
403.701	5.26851
403.915	-36.87534
404.128	1.05369
404.341	-41.08919
404.555	-15.80464
404.768	13.69845
404.981	-83.22208
405.195	-9.48295
405.408	-64.26353
405.621	-49.51657
405.834	13.69845
406.048	34.77495
406.261	7.37596
406.474	55.85379
406.687	-22.12611
406.9	-51.62336
407.114	-43.19607
407.327	13.69845
407.54	-1.05368
407.753	-34.76838
407.966	-45.30293
408.179	-11.5902
408.392	-3.16104
408.605	-36.87534
408.819	-1.05368
409.032	72.71852
409.245	43.20621
409.458	49.5299
409.671	-68.47672
409.884	-34.76838
410.097	17.91356
410.31	17.91356
410.523	7.37596
410.736	-1.05368
410.949	-22.12611
411.162	17.91356
411.375	-41.08919
411.588	24.2364
411.801	-24.23321
412.014	34.77495
412.227	-83.22208
412.44	-11.5902
412.653	66.39408
412.865	-9.48295
413.078	38.99053
413.291	-11.5902
413.504	-41.08919
413.717	-7.37567
413.93	-36.87534
414.143	-41.08919
414.356	-28.44736
414.568	-3.16104
414.781	-20.01897
414.994	47.42198
415.207	32.66719
415.42	-32.6614
415.632	47.42198
415.845	-112.70897
416.058	-30.55439
416.271	-68.47672
416.483	-22.12611
416.696	41.09836
416.909	-20.01897
417.121	-15.80464
417.334	26.34407
417.547	-1.05368
417.759	49.5299
417.972	-45.30293
418.185	-3.16104
418.397	-7.37567
418.61	-51.62336
418.823	-34.76838
419.035	38.99053
419.248	-79.00925
419.46	32.66719
419.673	-1.05368
419.885	-70.58328
420.098	7.37596
420.311	-7.37567
420.523	11.59093
420.736	76.93493
420.948	-45.30293
421.161	51.63784
421.373	-60.05024
421.586	74.82672
421.798	81.15143
422.01	-20.01897
422.223	41.09836
422.435	-41.08919
422.648	45.31408
422.86	64.28597
423.073	-36.87534
423.285	15.80599
423.497	5.26851
423.71	-17.91182
423.922	9.48343
424.134	20.02115
424.347	32.66719
424.559	-32.6614
424.771	-20.01897
424.984	-5.26836
425.196	49.5299
425.408	17.91356
425.621	-28.44736
425.833	55.85379
426.045	34.77495
426.257	-9.48295
426.47	-20.01897
426.682	-34.76838
426.894	-1.05368
427.106	51.63784
427.318	-9.48295
427.531	9.48343
427.743	20.02115
427.955	-100.07236
428.167	13.69845
428.379	83.25972
428.591	-15.80464
428.804	26.34407
429.016	-45.30293
429.228	32.66719
429.44	-57.94356
429.652	32.66719
429.864	-24.23321
430.076	41.09836
430.288	57.9618
430.5	28.45175
430.712	17.91356
430.924	81.15143
431.136	17.91356
431.348	-26.3403
431.56	49.5299
431.772	15.80599
431.984	32.66719
432.196	47.42198
432.408	38.99053
432.62	-26.3403
432.832	72.71852
433.044	-53.73012
433.256	13.69845
433.468	74.82672
433.679	-51.62336
433.891	32.66719
434.103	-11.5902
434.315	5.26851
434.527	55.85379
434.739	-22.12611
434.95	-26.3403
435.162	-34.76838
435.374	72.71852
435.586	72.71852
435.798	32.66719
436.009	-34.76838
436.221	-1.05368
436.433	13.69845
436.645	13.69845
436.856	11.59093
437.068	9.48343
437.28	-34.76838
437.491	-34.76838
437.703	-9.48295
437.915	125.43005
438.126	5.26851
438.338	15.80599
438.55	15.80599
438.761	41.09836
438.973	-1.05368
439.184	41.09836
439.396	9.48343
439.608	-32.6614
439.819	-76.90279
440.031	28.45175
440.242	-85.32845
440.454	13.69845
440.665	5.26851
440.877	-36.87534
441.088	-15.80464
441.3	5.26851
441.511	-15.80464
441.723	-26.3403
441.934	-62.1569
442.146	-17.91182
442.357	-3.16104
442.569	-9.48295
442.78	-3.16104
442.991	-36.87534
443.203	-32.6614
443.414	-11.5902
443.626	5.26851
443.837	13.69845
444.048	-41.08919
444.26	53.7458
444.471	55.85379
444.682	-11.5902
444.894	-7.37567
445.105	49.5299
445.316	-11.5902
445.528	24.2364
445.739	-20.01897
445.95	1.05369
446.161	32.66719
446.373	-9.48295
446.584	-45.30293
446.795	32.66719
447.006	108.56086
447.217	-76.90279
447.429	13.69845
447.64	30.55946
447.851	-112.70897
448.062	72.71852
448.273	-24.23321
448.484	85.36802
448.695	-7.37567
448.907	9.48343
449.118	5.26851
449.329	32.66719
449.54	20.02115
449.751	17.91356
449.962	22.12877
450.173	-13.69743
450.384	-22.12611
450.595	68.5022
450.806	-34.76838
451.017	60.06984
451.228	28.45175
451.439	38.99053
451.65	17.91356
451.861	22.12877
452.072	72.71852
452.283	36.88273
452.494	15.80599
452.705	38.99053
452.915	20.02115
453.126	34.77495
453.337	43.20621
453.548	13.69845
453.759	64.28597
453.97	17.91356
454.181	17.91356
454.391	7.37596
454.602	24.2364
454.813	-26.3403
455.024	64.28597
455.235	20.02115
455.445	66.39408
455.656	-20.01897
455.867	32.66719
456.078	-24.23321
456.288	-15.80464
456.499	38.99053
456.71	-26.3403
456.921	89.5847
457.131	49.5299
457.342	24.2364
457.553	-11.5902
457.763	17.91356
457.974	43.20621
458.184	17.91356
458.395	43.20621
458.606	64.28597
458.816	26.34407
459.027	30.55946
459.237	68.5022
459.448	-9.48295
459.659	49.5299
459.869	64.28597
460.08	30.55946
460.29	-51.62336
460.501	-28.44736
460.711	-28.44736
460.922	30.55946
461.132	11.59093
461.343	-34.76838
461.553	9.48343
461.764	-32.6614
461.974	22.12877
462.184	38.99053
462.395	20.02115
462.605	26.34407
462.816	-1.05368
463.026	7.37596
463.236	28.45175
463.447	79.04317
463.657	17.91356
463.867	57.9618
464.078	62.17789
464.288	55.85379
464.498	22.12877
464.709	17.91356
464.919	28.45175
465.129	51.63784
465.339	9.48343
465.55	38.99053
465.76	47.42198
465.97	68.5022
466.18	55.85379
466.391	49.5299
466.601	26.34407
466.811	9.48343
467.021	116.99528
467.231	36.88273
467.441	68.5022
467.651	43.20621
467.862	64.28597
468.072	72.71852
468.282	15.80599
468.492	5.26851
468.702	98.01833
468.912	89.5847
469.122	81.15143
469.332	-7.37567
469.542	24.2364
469.752	100.12679
469.962	13.69845
470.172	26.34407
470.382	30.55946
470.592	5.26851
470.802	76.93493
471.012	72.71852
471.222	43.20621
471.432	70.61035
471.642	106.45231
471.852	5.26851
472.062	53.7458
472.272	85.36802
472.482	106.45231
472.691	30.55946
472.901	87.47635
473.111	55.85379
473.321	66.39408
473.531	60.06984
473.741	41.09836
473.95	102.23527
474.16	43.20621
474.37	-3.16104
474.58	72.71852
474.79	98.01833
474.999	64.28597
475.209	106.45231
475.419	91.69308
475.628	89.5847
475.838	165.49987
476.048	62.17789
476.258	112.77803
476.467	91.69308
476.677	85.36802
476.886	76.93493
477.096	133.86516
477.306	135.97399
477.515	76.93493
477.725	131.75635
477.935	81.15143
478.144	150.73642
478.354	135.97399
478.563	89.5847
478.773	89.5847
478.982	66.39408
479.192	72.71852
479.401	127.53879
479.611	108.56086
479.82	214.01547
480.03	148.62743
480.239	152.84542
480.449	76.93493
480.658	89.5847
480.868	199.24872
481.077	165.49987
481.287	207.68674
481.496	216.12509
481.705	133.86516
481.915	116.99528
482.124	205.57721
482.333	131.75635
482.543	201.3582
482.752	131.75635
482.961	228.7832
483.171	207.68674
483.38	184.48295
483.589	218.23472
483.799	233.00273
484.008	182.37364
484.217	224.56375
484.426	199.24872
484.636	216.12509
484.845	209.7963
485.054	224.56375
485.263	249.88161
485.472	300.52556
485.682	216.12509
485.891	247.77168
486.1	327.96211
486.309	197.13926
486.518	273.09208
486.727	275.20224
486.936	300.52556
487.146	346.9584
487.355	325.8515
487.564	376.51098
487.773	336.40473
487.982	355.40166
488.191	420.84599
488.4	412.40067
488.609	332.18339
488.818	393.39965
489.027	351.18
489.236	418.73464
489.445	454.6298
489.654	479.97025
489.863	477.85847
490.072	401.84439
490.281	488.41755
490.49	456.74142
490.698	536.99404
490.907	494.75318
491.116	528.54541
491.325	583.4654
491.534	509.53683
491.743	503.20089
491.952	524.32118
492.16	619.37947
492.369	585.57789
492.578	530.65755
492.787	579.24047
492.996	524.32118
493.204	570.79075
493.413	697.55762
493.622	558.11657
493.831	659.52298
494.039	765.18357
494.248	735.59588
494.457	735.59588
494.665	691.21826
494.874	811.68246
495.083	773.63756
495.291	790.54602
495.5	765.18357
495.709	801.11412
495.917	832.81983
496.126	902.57934
496.335	826.47853
496.543	763.0701
496.752	921.6062
496.96	782.09171
497.169	902.57934
497.377	883.55312
497.586	832.81983
497.794	980.80469
498.003	830.70605
498.211	809.56877
498.42	862.41365
498.628	968.11884
498.837	972.34743
499.045	1188.03596
499.254	894.12316
499.462	1037.8939
499.671	989.26206
499.879	1086.52881
500.087	1012.52036
500.296	1200.72501
500.504	1035.77941
500.713	1154.19916
500.921	1162.65826
501.129	1014.63479
501.338	1116.13401
501.546	1298.01132
501.754	1107.67528
501.962	1213.41418
502.171	1124.5928
502.379	1410.10733
502.587	1293.78137
502.795	1382.61177
503.004	1196.49531
503.212	1399.5321
503.42	1236.67796
503.628	1344.54128
503.837	1251.48236
504.045	1407.99228
504.253	1308.58624
504.461	1467.2137
504.669	1230.33325
504.877	1501.05449
505.085	1482.01906
505.294	1456.63844
505.502	1503.16953
505.71	1592.00049
505.918	1357.2314
506.126	1619.49525
506.334	1539.12517
506.542	1602.57544
506.75	1498.93944
506.958	1718.89597
507.166	1579.3105
507.374	1589.8855
507.582	1657.56431
507.79	1790.79847
507.998	1560.27541
508.206	1689.28789
508.414	1577.1955
508.622	1644.8747
508.83	1611.03536
509.037	1680.82833
509.245	1763.30685
509.453	1921.90178
509.661	1790.79847
509.869	1995.90253
510.077	1756.96254
510.285	1924.01619
510.492	1837.32112
510.7	1934.58814
510.908	1775.99537
511.116	1940.93124
511.324	1843.66495
511.531	2012.81591
511.739	1835.2065
511.947	1909.21522
512.155	1890.18501
512.362	2008.5876
512.57	1900.7574
512.778	1991.67411
512.985	1985.33145
513.193	1938.81688
513.401	1951.50296
513.608	2088.92075
513.816	2042.41331
514.024	1974.76022
514.231	2114.28695
514.439	2207.28664
514.646	2103.71784
514.854	2304.49579
515.061	2063.55349
515.269	2186.15174
515.477	2226.30731
515.684	2101.60399
515.892	2131.19714
516.099	2319.28677
516.307	2135.42461
516.514	2177.69755
516.722	2145.99315
516.929	2296.04359
517.136	2285.47813
517.344	2458.72037
517.551	2348.8673
517.759	2507.29996
517.966	2367.88233
518.173	2416.47254
518.381	2365.76959
518.588	2437.59699
518.796	2262.2333
519.003	2490.40338
519.21	2408.02246
519.418	2458.72037
519.625	2636.11181
519.832	2509.41198
520.039	2627.66651
520.247	2608.66385
520.454	2509.41198
520.661	2842.95698
520.868	2676.22427
521.076	2897.81224
521.283	2720.55373
521.49	2855.61674
521.697	2745.88226
521.904	2861.94643
522.112	2790.20257
522.319	2914.68883
522.526	2735.32894
522.733	2942.1113
522.94	2750.1035
523.147	2802.86442
523.354	2851.39687
523.561	2849.28692
523.768	2895.7026
523.975	2984.29483
524.183	2984.29483
524.39	3171.93687
524.597	3058.10144
524.804	3218.30076
525.011	3138.21272
525.218	3167.72158
525.425	3001.16656
525.632	3258.33585
525.838	3211.97888
526.045	3275.19091
526.252	3013.81972
526.459	3193.01236
526.666	3127.67307
526.873	3441.57544
527.08	3174.0445
527.287	3443.68087
527.494	3165.61391
527.701	3637.3024
527.907	3464.73419
528.114	3527.88327
528.321	3418.41454
528.528	3468.94463
528.735	3506.8354
528.941	3561.55605
529.148	3304.68466
529.355	3351.02519
529.562	3479.47044
529.768	3641.50981
529.975	3563.66044
530.182	3586.80752
530.388	3407.88614
530.595	3708.81813
530.802	3416.30889
531.008	3845.47716
531.215	3744.56768
531.422	3763.49165
531.628	3683.5798
531.835	3763.49165
532.042	3727.74506
532.248	4038.75837
532.455	3603.64035
532.661	4009.35711
532.868	3750.87584
533.074	3822.35608
533.281	3893.81348
533.487	4026.15832
533.694	3952.64336
533.9	4246.55068
534.107	3805.53924
534.313	4145.82859
534.52	4076.55404
534.726	3952.64336
534.933	3994.65498
535.139	4269.62593
535.345	4217.17845
535.552	4307.37983
535.758	3988.35375
535.965	4493.94868
536.171	4328.3512
536.377	4280.11382
536.584	4133.23491
536.79	4460.42098
536.996	4343.02988
537.203	4523.28079
537.409	4278.01628
537.615	4328.3512
537.821	4179.40804
538.028	4556.79789
538.234	4219.2766
538.44	4487.66267
538.646	4359.80422
538.853	4560.98713
539.059	4481.37646
539.265	4552.60857
539.471	4389.15597
539.677	4607.06287
539.883	4378.67369
540.09	4636.37818
540.296	4577.74319
540.502	4630.0967
540.708	4594.49783
540.914	4761.96531
541.12	4715.92612
541.326	4751.50282
541.532	4569.36534
541.738	4812.17737
541.944	4749.41026
542.15	4799.62559
542.356	4743.13242
542.562	4937.65007
542.768	4812.17737
542.974	4870.74154
543.18	5046.32621
543.386	5058.86174
543.592	4929.28779
543.798	5131.96908
544.004	5056.77255
544.21	5014.98372
544.415	4787.07298
544.621	5163.29209
544.827	5090.19694
545.033	5301.05102
545.239	4996.17574
545.445	5321.9147
545.651	5127.79229
545.856	5376.1493
546.062	5307.31037
546.268	5242.62026
546.474	5209.22303
546.679	5342.77604
546.885	5259.31663
547.091	5334.43178
547.297	5175.81983
547.502	5213.39801
547.708	5282.2717
547.914	5340.69001
548.119	5259.31663
548.325	5432.45307
548.531	5161.20405
548.736	5622.09128
548.942	5490.82405
549.147	5672.07323
549.353	5509.58224
549.559	5609.59367
549.764	5405.34598
549.97	5547.09289
550.175	5499.16126
550.381	5928.01738
550.586	5655.41409
550.792	5674.15552
550.997	5597.09521
551.203	5898.90353
551.408	5855.22409
551.614	6017.4096
551.819	5680.40223
552.025	5909.30186
552.23	5672.07323
552.435	5994.54597
552.641	5979.9949
552.846	5905.1426
553.052	5771.99635
553.257	6063.1283
553.462	5913.46103
553.668	5984.15247
553.873	5848.98332
554.078	6104.68088
554.283	5923.85854
554.489	6050.66069
554.694	5950.8893
554.899	6171.14544
555.105	5969.60058
555.31	6196.06345
555.515	6227.20622
555.72	6073.51733
555.925	6137.91617
556.131	6438.83743
556.336	6071.43957
556.541	6364.1718
556.746	6422.24768
556.951	6270.79723
557.156	6081.82813
557.361	6428.46901
557.567	6416.02613
557.772	6592.22224
557.977	6376.61817
558.182	6527.98189
558.387	6372.46947
558.592	6484.45159
558.797	6633.65585
559.002	6333.0522
559.207	6445.05821
559.412	6544.56217
559.617	6496.88986
559.822	6666.79611
560.027	6527.98189
560.232	6469.93921
560.437	6386.9895
560.642	6673.00925
560.847	6521.7639
561.051	6693.71822
561.256	6592.22224
561.461	6983.40412
561.666	6739.2699
561.871	6673.00925
562.076	6689.57661
562.281	6764.11159
562.485	6552.85176
562.69	6942.04767
562.895	6730.9886
563.1	7002.01159
563.305	6594.29414
563.509	6879.99603
563.714	6919.29777
563.919	6784.81048
564.123	6795.15907
564.328	7099.15434
564.533	6846.89348
564.737	6830.34002
564.942	6991.67433
565.147	7008.21367
565.351	7018.55002
565.556	6844.82437
565.761	7010.28098
565.965	7035.08702
566.17	6871.72094
566.374	6929.63897
566.579	7030.95291
566.784	7247.87323
566.988	6985.47171
567.193	7252.00267
567.397	7035.08702
567.602	7334.57301
567.806	7045.42192
568.011	7396.47778
568.215	7223.09473
568.42	7249.93796
568.624	7398.54093
568.828	7518.16678
569.033	7400.60406
569.237	7542.9079
569.442	7266.45502
569.646	7441.86215
569.85	7101.22067
570.055	7379.97176
570.259	7522.29051
570.463	7588.25859
570.668	7371.71823
570.872	7520.22866
571.076	7514.04296
571.281	7573.82995
571.485	7505.79506
571.689	7604.74719
571.893	7542.9079
572.098	7734.54741
572.302	7392.3514
572.506	7763.38054
572.71	7476.9247
572.914	8006.24078
573.119	7699.53022
573.323	7761.32116
573.527	7623.29523
573.731	7755.14292
573.935	7619.17359
574.139	7952.75384
574.343	7732.48774
574.547	7856.03069
574.751	7730.42806
574.955	7775.73633
575.159	7792.20955
575.364	7742.78587
575.568	7874.55567
575.772	7958.92611
575.976	7615.05187
576.18	7687.16976
576.383	7903.36898
576.587	7985.67051
576.791	7748.96449
576.995	8051.48821
577.199	7818.97569
577.403	7841.62122
577.607	8107.00577
577.811	8283.74238
578.015	8063.82672
578.219	8234.43528
