Data from mixed_try6.1_USB4F045381__26__00310.txt Node

Date: Thu Apr 03 20:33:52 EDT 2025
User: mmckonesweet
Spectrometer: USB4F04538
Trigger mode: 4
Integration Time (sec): 2.700000E-3
Scans to average: 1
Electric dark correction enabled: true
Nonlinearity correction enabled: true
Boxcar width: 0
XAxis mode: Wavelengths
Number of Pixels in Spectrum: 3648
>>>>>Begin Spectral Data<<<<<
345.52	82.02988
345.736	82.02988
345.952	82.02988
346.168	63.05626
346.384	41.97663
346.6	-4.39031
346.816	-54.95905
347.032	-12.81942
347.248	27.22227
347.464	-21.24814
347.68	54.62413
347.896	14.57659
348.112	25.11459
348.328	-40.21131
348.544	-4.39031
348.76	20.89932
348.975	-4.39031
349.191	-17.03383
349.407	14.57659
349.623	86.24649
349.839	-21.24814
350.055	111.54801
350.27	-6.49763
350.486	16.68414
350.702	54.62413
350.918	-14.92664
351.133	41.97663
351.349	-31.78348
351.565	58.84015
351.781	52.51615
351.996	52.51615
352.212	84.13817
352.428	-35.99745
352.644	16.68414
352.859	37.76098
353.075	46.19237
353.291	41.97663
353.506	33.54542
353.722	63.05626
353.938	58.84015
354.153	86.24649
354.369	58.84015
354.584	52.51615
354.8	-42.31821
355.016	18.79172
355.231	-0.17561
355.447	18.79172
355.662	-14.92664
355.878	12.46906
356.093	67.27246
356.309	-8.60492
356.524	92.57157
356.74	33.54542
356.955	16.68414
357.171	27.22227
357.386	35.65319
357.602	84.13817
357.817	90.46319
358.033	60.94819
358.248	12.46906
358.464	-17.03383
358.679	16.68414
358.895	90.46319
359.11	10.36155
359.325	86.24649
359.541	27.22227
359.756	86.24649
359.972	29.32996
360.187	-31.78348
360.402	46.19237
360.618	75.70514
360.833	-8.60492
361.048	33.54542
361.264	25.11459
361.479	65.16435
361.694	-33.89048
361.909	35.65319
362.125	46.19237
362.34	52.51615
362.555	16.68414
362.77	41.97663
362.986	92.57157
363.201	-0.17561
363.416	-0.17561
363.631	60.94819
363.847	8.25407
364.062	-35.99745
364.277	41.97663
364.492	63.05626
364.707	41.97663
364.922	41.97663
365.138	109.43943
365.353	79.92161
365.568	79.92161
365.783	115.76524
365.998	12.46906
366.213	-46.53192
366.428	-44.42508
366.643	27.22227
366.858	56.73213
367.073	23.00695
367.288	48.30027
367.503	-8.60492
367.718	58.84015
367.933	35.65319
368.148	14.57659
368.363	33.54542
368.578	58.84015
368.793	-0.17561
369.008	25.11459
369.223	41.97663
369.438	33.54542
369.653	109.43943
369.868	84.13817
370.083	39.86879
370.298	18.79172
370.513	-0.17561
370.728	-0.17561
370.943	50.4082
371.157	29.32996
371.372	124.19996
371.587	67.27246
371.802	29.32996
372.017	6.14661
372.232	84.13817
372.446	23.00695
372.661	46.19237
372.876	46.19237
373.091	50.4082
373.306	-8.60492
373.52	31.43768
373.735	-33.89048
373.95	79.92161
374.165	48.30027
374.379	31.43768
374.594	46.19237
374.809	33.54542
375.023	37.76098
375.238	67.27246
375.453	41.97663
375.667	-8.60492
375.882	33.54542
376.097	35.65319
376.311	39.86879
376.526	56.73213
376.741	-33.89048
376.955	18.79172
377.17	71.48875
377.384	6.14661
377.599	71.48875
377.813	58.84015
378.028	46.19237
378.242	50.4082
378.457	69.38059
378.672	69.38059
378.886	-6.49763
379.101	-10.71218
379.315	29.32996
379.53	12.46906
379.744	25.11459
379.958	94.67998
380.173	46.19237
380.387	101.00532
380.602	67.27246
380.816	86.24649
381.031	109.43943
381.245	84.13817
381.459	-31.78348
381.674	52.51615
381.888	16.68414
382.103	-12.81942
382.317	58.84015
382.531	107.33087
382.746	54.62413
382.96	-46.53192
383.174	56.73213
383.388	126.30869
383.603	67.27246
383.817	-27.56942
384.031	-0.17561
384.246	33.54542
384.46	1.93177
384.674	75.70514
384.888	-14.92664
385.103	117.87389
385.317	8.25407
385.531	27.22227
385.745	-33.89048
385.959	60.94819
386.174	16.68414
386.388	101.00532
386.602	29.32996
386.816	86.24649
387.03	-0.17561
387.244	-29.67646
387.458	14.57659
387.672	52.51615
387.887	84.13817
388.101	16.68414
388.315	84.13817
388.529	12.46906
388.743	90.46319
388.957	122.09124
389.171	103.11382
389.385	18.79172
389.599	44.08449
389.813	-14.92664
390.027	46.19237
390.241	16.68414
390.455	10.36155
390.669	58.84015
390.883	16.68414
391.097	10.36155
391.311	58.84015
391.525	117.87389
391.738	50.4082
391.952	20.89932
392.166	50.4082
392.38	58.84015
392.594	31.43768
392.808	-17.03383
393.022	35.65319
393.236	10.36155
393.449	-8.60492
393.663	50.4082
393.877	29.32996
394.091	35.65319
394.305	52.51615
394.518	109.43943
394.732	41.97663
394.946	46.19237
395.16	94.67998
395.373	54.62413
395.587	39.86879
395.801	-25.46235
396.015	58.84015
396.228	-0.17561
396.442	94.67998
396.656	75.70514
396.869	-6.49763
397.083	58.84015
397.297	31.43768
397.51	8.25407
397.724	-33.89048
397.938	33.54542
398.151	71.48875
398.365	35.65319
398.578	12.46906
398.792	128.41744
399.005	39.86879
399.219	56.73213
399.433	35.65319
399.646	12.46906
399.86	39.86879
400.073	14.57659
400.287	77.81336
400.5	8.25407
400.714	67.27246
400.927	58.84015
401.141	-14.92664
401.354	115.76524
401.567	84.13817
401.781	25.11459
401.994	50.4082
402.208	16.68414
402.421	1.93177
402.635	35.65319
402.848	10.36155
403.061	82.02988
403.275	41.97663
403.488	-8.60492
403.701	109.43943
403.915	105.22233
404.128	71.48875
404.341	44.08449
404.555	50.4082
404.768	101.00532
404.981	-12.81942
405.195	48.30027
405.408	35.65319
405.621	84.13817
405.834	63.05626
406.048	-0.17561
406.261	31.43768
406.474	33.54542
406.687	18.79172
406.9	58.84015
407.114	27.22227
407.327	10.36155
407.54	75.70514
407.753	35.65319
407.966	16.68414
408.179	50.4082
408.392	-21.24814
408.605	-38.10439
408.819	25.11459
409.032	-0.17561
409.245	-14.92664
409.458	-21.24814
409.671	20.89932
409.884	-8.60492
410.097	35.65319
410.31	20.89932
410.523	-23.35526
410.736	67.27246
410.949	25.11459
411.162	46.19237
411.375	31.43768
411.588	92.57157
411.801	41.97663
412.014	46.19237
412.227	-42.31821
412.44	41.97663
412.653	63.05626
412.865	75.70514
413.078	-2.28298
413.291	-42.31821
413.504	48.30027
413.717	54.62413
413.93	82.02988
414.143	46.19237
414.356	33.54542
414.568	44.08449
414.781	8.25407
414.994	44.08449
415.207	-8.60492
415.42	-54.95905
415.632	109.43943
415.845	75.70514
416.058	-0.17561
416.271	73.59693
416.483	14.57659
416.696	27.22227
416.909	35.65319
417.121	90.46319
417.334	105.22233
417.547	92.57157
417.759	37.76098
417.972	37.76098
418.185	-0.17561
418.397	71.48875
418.61	23.00695
418.823	58.84015
419.035	63.05626
419.248	126.30869
419.46	48.30027
419.673	33.54542
419.885	60.94819
420.098	109.43943
420.311	27.22227
420.523	56.73213
420.736	54.62413
420.948	-17.03383
421.161	134.74384
421.373	130.52622
421.586	96.7884
421.798	35.65319
422.01	10.36155
422.223	84.13817
422.435	27.22227
422.648	-23.35526
422.86	126.30869
423.073	-6.49763
423.285	79.92161
423.497	41.97663
423.71	37.76098
423.922	31.43768
424.134	82.02988
424.347	147.39721
424.559	-17.03383
424.771	60.94819
424.984	67.27246
425.196	8.25407
425.408	56.73213
425.621	75.70514
425.833	84.13817
426.045	-50.74553
426.257	41.97663
426.47	10.36155
426.682	50.4082
426.894	69.38059
427.106	8.25407
427.318	29.32996
427.531	31.43768
427.743	-42.31821
427.955	46.19237
428.167	27.22227
428.379	-23.35526
428.591	69.38059
428.804	-14.92664
429.016	33.54542
429.228	-4.39031
429.44	-21.24814
429.652	33.54542
429.864	33.54542
430.076	77.81336
430.288	27.22227
430.5	54.62413
430.712	8.25407
430.924	37.76098
431.136	-6.49763
431.348	54.62413
431.56	46.19237
431.772	18.79172
431.984	18.79172
432.196	-2.28298
432.408	33.54542
432.62	58.84015
432.832	134.74384
433.044	-14.92664
433.256	109.43943
433.468	86.24649
433.679	71.48875
433.891	37.76098
434.103	44.08449
434.315	46.19237
434.527	20.89932
434.739	-25.46235
434.95	29.32996
435.162	153.72418
435.374	12.46906
435.586	98.89685
435.798	122.09124
436.009	1.93177
436.221	79.92161
436.433	58.84015
436.645	67.27246
436.856	115.76524
437.068	37.76098
437.28	44.08449
437.491	-17.03383
437.703	58.84015
437.915	88.35483
438.126	50.4082
438.338	60.94819
438.55	75.70514
438.761	8.25407
438.973	50.4082
439.184	69.38059
439.396	27.22227
439.608	60.94819
439.819	69.38059
440.031	67.27246
440.242	-31.78348
440.454	44.08449
440.665	58.84015
440.877	65.16435
441.088	44.08449
441.3	52.51615
441.511	29.32996
441.723	75.70514
441.934	73.59693
442.146	46.19237
442.357	54.62413
442.569	8.25407
442.78	101.00532
442.991	67.27246
443.203	46.19237
443.414	25.11459
443.626	18.79172
443.837	33.54542
444.048	117.87389
444.26	56.73213
444.471	41.97663
444.682	58.84015
444.894	92.57157
445.105	35.65319
445.316	71.48875
445.528	18.79172
445.739	12.46906
445.95	79.92161
446.161	-23.35526
446.373	79.92161
446.584	58.84015
446.795	67.27246
447.006	16.68414
447.217	75.70514
447.429	16.68414
447.64	44.08449
447.851	8.25407
448.062	130.52622
448.273	52.51615
448.484	50.4082
448.695	-27.56942
448.907	103.11382
449.118	109.43943
449.329	-31.78348
449.54	33.54542
449.751	117.87389
449.962	56.73213
450.173	122.09124
450.384	16.68414
450.595	1.93177
450.806	8.25407
451.017	33.54542
451.228	56.73213
451.439	113.65661
451.65	35.65319
451.861	86.24649
452.072	46.19237
452.283	-12.81942
452.494	79.92161
452.705	4.03918
452.915	31.43768
453.126	92.57157
453.337	6.14661
453.548	52.51615
453.759	50.4082
453.97	41.97663
454.181	73.59693
454.391	119.98255
454.602	-4.39031
454.813	-6.49763
455.024	20.89932
455.235	103.11382
455.445	71.48875
455.656	-2.28298
455.867	12.46906
456.078	77.81336
456.288	-0.17561
456.499	96.7884
456.71	20.89932
456.921	8.25407
457.131	-23.35526
457.342	96.7884
457.553	60.94819
457.763	20.89932
457.974	20.89932
458.184	41.97663
458.395	-0.17561
458.606	39.86879
458.816	41.97663
459.027	41.97663
459.237	92.57157
459.448	63.05626
459.659	67.27246
459.869	54.62413
460.08	60.94819
460.29	27.22227
460.501	41.97663
460.711	84.13817
460.922	-6.49763
461.132	4.03918
461.343	77.81336
461.553	67.27246
461.764	84.13817
461.974	8.25407
462.184	75.70514
462.395	71.48875
462.605	33.54542
462.816	94.67998
463.026	46.19237
463.236	67.27246
463.447	71.48875
463.657	143.17933
463.867	46.19237
464.078	130.52622
464.288	73.59693
464.498	67.27246
464.709	60.94819
464.919	155.83321
465.129	37.76098
465.339	109.43943
465.55	50.4082
465.76	109.43943
465.97	75.70514
466.18	60.94819
466.391	71.48875
466.601	4.03918
466.811	50.4082
467.021	134.74384
467.231	75.70514
467.441	84.13817
467.651	134.74384
467.862	92.57157
468.072	33.54542
468.282	31.43768
468.492	18.79172
468.702	145.28826
468.912	58.84015
469.122	136.85268
469.332	67.27246
469.542	126.30869
469.752	103.11382
469.962	77.81336
470.172	138.96154
470.382	134.74384
470.592	58.84015
470.802	-12.81942
471.012	119.98255
471.222	170.59702
471.432	41.97663
471.642	35.65319
471.852	41.97663
472.062	35.65319
472.272	50.4082
472.482	77.81336
472.691	113.65661
472.901	128.41744
473.111	52.51615
473.321	84.13817
473.531	88.35483
473.741	138.96154
473.95	75.70514
474.16	52.51615
474.37	151.61516
474.58	185.36184
474.79	147.39721
474.999	90.46319
475.209	96.7884
475.419	69.38059
475.628	136.85268
475.838	151.61516
476.048	134.74384
476.258	134.74384
476.467	138.96154
476.677	115.76524
476.886	20.89932
477.096	67.27246
477.306	75.70514
477.515	151.61516
477.725	136.85268
477.935	92.57157
478.144	134.74384
478.354	168.48784
478.563	79.92161
478.773	151.61516
478.982	160.05133
479.192	221.22341
479.401	153.72418
479.611	145.28826
479.82	206.45618
480.03	117.87389
480.239	164.26954
480.449	155.83321
480.658	208.56572
480.868	212.78487
481.077	164.26954
481.287	195.90876
481.496	162.16043
481.705	126.30869
481.915	155.83321
482.124	153.72418
482.333	204.34665
482.543	179.03394
482.752	198.0182
482.961	214.89448
483.171	267.64093
483.38	157.94226
483.589	229.66226
483.799	227.55252
484.008	185.36184
484.217	233.8818
484.426	231.77202
484.636	252.87071
484.845	288.74285
485.054	269.75104
485.263	235.99161
485.472	164.26954
485.682	248.65082
485.891	263.42077
486.1	240.21127
486.309	259.20069
486.518	263.42077
486.727	307.73615
486.936	246.5409
487.146	254.98069
487.355	210.67529
487.564	282.41208
487.773	396.39047
487.982	409.05781
488.191	360.50292
488.4	314.06758
488.609	409.05781
488.818	413.28038
489.027	421.72573
489.236	402.72406
489.445	461.84457
489.654	326.73092
489.863	356.28118
490.072	324.62032
490.281	468.17963
490.49	292.96345
490.698	480.85017
490.907	425.9485
491.116	404.83529
491.325	430.17133
491.534	373.16856
491.743	432.28277
491.952	539.98631
492.16	508.30483
492.369	514.64087
492.578	432.28277
492.787	506.19285
492.996	504.08088
493.204	497.74505
493.413	605.47113
493.622	584.34561
493.831	480.85017
494.039	637.1618
494.248	613.9217
494.457	630.82344
494.665	565.33375
494.874	683.64637
495.083	533.64976
495.291	588.57061
495.5	740.70313
495.709	827.35926
495.917	666.74223
496.126	721.68333
496.335	658.29044
496.543	797.76753
496.752	761.83724
496.96	679.42027
497.169	717.45683
497.377	702.6644
497.586	656.17752
497.794	856.95276
498.003	821.01802
498.211	859.06665
498.42	795.65391
498.628	840.04198
498.837	869.63621
499.045	846.38345
499.254	763.95071
499.462	945.743
499.671	886.54795
499.879	882.31996
500.087	880.20598
500.296	937.28621
500.504	916.14472
500.713	871.75015
500.921	1043.00395
501.129	992.2574
501.338	895.00401
501.546	1150.85078
501.754	1043.00395
501.962	888.66195
502.171	990.14304
502.379	1091.63916
502.587	975.34269
502.795	1047.23299
503.004	956.31416
503.212	1174.11341
503.42	1023.97359
503.628	1102.2124
503.837	1055.69112
504.045	1142.39176
504.253	1148.73602
504.461	1165.65421
504.669	1207.95077
504.877	1267.16813
505.085	1148.73602
505.294	1191.03198
505.502	1237.55917
505.71	1233.32936
505.918	1199.49135
506.126	1311.58247
506.334	1233.32936
506.542	1324.27245
506.75	1309.46748
506.958	1334.84747
507.166	1372.91786
507.374	1497.70566
507.582	1360.22769
507.79	1419.44879
507.998	1343.30752
508.206	1567.50171
508.414	1216.41025
508.622	1518.85609
508.83	1463.86487
509.037	1463.86487
509.245	1372.91786
509.453	1588.65175
509.661	1394.06824
509.869	1618.26152
510.077	1493.47557
510.285	1683.82443
510.492	1565.38669
510.7	1770.53228
510.908	1527.31624
511.116	1580.19175
511.324	1664.79029
511.531	1639.4111
511.739	1658.44552
511.947	1709.20292
512.155	1823.3998
512.362	1800.13841
512.57	1597.11172
512.778	1759.95847
512.985	1592.88174
513.193	1709.20292
513.401	1567.50171
513.608	1827.62908
513.816	1681.70954
514.024	1810.71184
514.231	1673.24993
514.439	1893.18053
514.646	1808.59716
514.854	1933.35475
515.061	1783.22072
515.269	1872.03543
515.477	1859.34812
515.684	2003.126
515.892	1903.75289
516.099	1977.75541
516.307	1990.44082
516.514	2123.62285
516.722	2113.0539
516.929	2058.09234
517.136	1969.29835
517.344	2146.87385
517.551	1971.41263
517.759	2047.52225
517.966	1994.66924
518.173	1958.72688
518.381	2062.32033
518.588	2218.73435
518.796	2231.4146
519.003	2235.64127
519.21	2123.62285
519.418	2256.77413
519.625	2058.09234
519.832	2210.28068
520.039	2079.23199
520.247	2332.84475
520.454	2117.2815
520.661	2514.51598
520.868	2159.55581
521.076	2442.70191
521.283	2193.37293
521.49	2362.42439
521.697	2468.04951
521.904	2476.49836
522.112	2189.14591
522.319	2493.39553
522.526	2468.04951
522.733	2497.61971
522.94	2341.29627
523.147	2605.32069
523.354	2512.40399
523.561	2700.32472
523.768	2531.41152
523.975	2493.39553
524.183	2381.43884
524.39	2603.2092
524.597	2408.90269
524.804	2643.32535
525.011	2596.87467
525.218	2653.88149
525.425	2552.52991
525.632	2712.98998
525.838	2506.06794
526.045	2729.87626
526.252	2742.54041
526.459	2761.53575
526.666	2704.54653
526.873	2873.37471
527.08	2763.64628
527.287	2940.88086
527.494	2750.98292
527.701	3046.32879
527.907	2791.08188
528.114	2936.66216
528.321	2902.91048
528.528	3082.17235
528.735	2759.42521
528.941	3023.1335
529.148	2873.37471
529.355	3021.02475
529.562	2932.44341
529.768	3170.70742
529.975	2907.12964
530.182	3153.84578
530.388	2940.88086
530.595	3349.79657
530.802	3058.97997
531.008	3193.89046
531.215	3261.32068
531.422	3193.89046
531.628	3126.44342
531.835	3362.4335
532.042	3240.25057
532.248	3231.82206
532.455	3200.21277
532.661	3387.70548
532.868	3244.46472
533.074	3434.03084
533.281	3261.32068
533.487	3505.60755
533.694	3356.11511
533.9	3547.70168
534.107	3375.0698
534.313	3507.71243
534.52	3398.23472
534.726	3480.34756
534.933	3421.3975
535.139	3716.00354
535.345	3463.50613
535.552	3501.39773
535.758	3507.71243
535.965	3673.93944
536.171	3442.45271
536.377	3657.11165
536.584	3471.92699
536.79	3812.72158
536.996	3617.14081
537.203	3690.766
537.409	3631.8677
537.615	3610.829
537.821	3692.86923
538.028	3924.10584
538.234	3673.93944
538.44	3917.80257
538.646	3898.89168
538.853	3915.70144
539.059	3652.90452
539.265	3978.72653
539.471	3697.07564
539.677	4041.73327
539.883	3816.92578
540.09	3926.20689
540.296	3867.36992
540.502	4096.32409
540.708	3869.47151
540.914	4123.61423
541.12	4142.50533
541.326	4171.88811
541.532	4119.41598
541.738	4220.15083
541.944	4066.93077
542.15	4373.25763
542.356	3863.16668
542.562	4194.97168
542.768	4165.59215
542.974	4241.13112
543.18	4052.23259
543.386	4173.98672
543.592	4115.21764
543.798	4329.22497
544.004	4069.03043
544.21	4356.48441
544.415	4188.67641
544.621	4505.29793
544.827	4243.22903
545.033	4530.43857
545.239	4173.98672
545.445	4649.81289
545.651	4404.70367
545.856	4475.96317
546.062	4513.6785
546.268	4794.22109
546.474	4509.48826
546.679	4633.06298
546.885	4463.38981
547.091	4461.29417
547.297	4341.8067
547.502	4697.9609
547.708	4538.81807
547.914	4727.26254
548.119	4557.67066
548.325	4610.0295
548.531	4471.77214
548.736	4584.899
548.942	4708.42628
549.147	4882.06885
549.353	4697.9609
549.559	4744.00435
549.764	4706.33325
549.97	4737.72635
550.175	4735.63363
550.381	4898.79719
550.586	4637.25059
550.792	4982.41686
550.997	4739.81904
551.203	5017.94407
551.408	5001.22621
551.614	4911.34249
551.819	4871.6129
552.025	5045.10743
552.23	4796.31317
552.435	5224.70478
552.641	5049.28606
552.846	5107.77718
553.052	5040.9287
553.257	5208.00531
553.462	5026.30244
553.668	5226.79211
553.873	5026.30244
554.078	5431.23681
554.283	4967.78607
554.489	5226.79211
554.694	5235.14119
554.899	5249.75118
555.105	5247.66411
555.31	5199.65501
555.515	5178.77765
555.72	5293.57429
555.925	5247.66411
556.131	5391.61717
556.336	5341.55919
556.541	5491.69253
556.746	5356.16083
556.951	5429.15177
557.156	5341.55919
557.361	5500.0297
557.567	5316.52514
557.772	5487.5238
557.977	5374.93268
558.182	5335.30099
558.387	5483.35498
558.592	5620.87627
558.797	5312.35247
559.002	5550.04479
559.207	5554.2121
559.412	5647.95169
559.617	5516.7029
559.822	5693.76256
560.027	5416.64108
560.232	5643.7865
560.437	5439.5767
560.642	6057.76041
560.847	5737.48045
561.051	5783.26899
561.256	5495.86116
561.461	5816.56257
561.666	5558.37932
561.871	5910.16837
562.076	5652.11679
562.281	5870.65174
562.485	5841.52878
562.69	5964.22994
562.895	5872.73178
563.1	5912.24795
563.305	5710.41822
563.509	5856.09084
563.714	5785.35001
563.919	5937.20115
564.123	5679.18761
564.328	5804.07818
564.533	5641.70387
564.737	5716.6637
564.942	5887.29136
565.147	6132.55046
565.351	5926.80439
565.556	5943.43892
565.761	5966.30892
565.965	6273.73752
566.17	6028.66715
566.374	6201.08126
566.579	6182.39357
566.784	5970.46679
566.988	6012.04036
567.193	6101.39164
567.397	5939.28043
567.602	6323.54238
567.806	6165.78071
568.011	6317.31751
568.215	6232.22317
568.42	6122.16478
568.624	6203.15755
568.828	6250.90579
569.033	6036.97998
569.237	6309.01736
569.442	6325.61729
569.646	6219.76704
569.85	6103.46906
570.055	6265.4354
570.259	6140.85859
570.463	6425.18555
570.668	6294.49118
570.872	6450.06923
571.076	6385.77954
571.281	6684.2269
571.485	6242.60263
571.689	6559.93216
571.893	6329.76704
572.098	6468.7298
572.302	6196.9286
572.506	6524.7002
572.71	6298.64163
572.914	6582.72574
573.119	6373.33379
573.323	6646.94718
573.527	6673.87217
573.731	6692.51026
573.935	6634.51896
574.139	6709.0759
574.343	6516.40935
574.547	6421.03795
574.751	6582.72574
574.955	6853.96274
575.159	6615.87506
575.364	6630.37603
575.568	6713.21708
575.772	6862.23861
575.976	6609.66001
576.18	6713.21708
576.383	6959.45294
576.587	6930.50071
576.791	6564.07665
576.995	6913.95459
577.199	6754.62383
577.403	7033.88125
577.607	6947.04539
577.811	7000.8056
578.015	6880.858
578.219	7035.94828
