Data from mixed_try6.1_USB4F045381__20__00304.txt Node

Date: Thu Apr 03 20:32:51 EDT 2025
User: mmckonesweet
Spectrometer: USB4F04538
Trigger mode: 4
Integration Time (sec): 2.700000E-3
Scans to average: 1
Electric dark correction enabled: true
Nonlinearity correction enabled: true
Boxcar width: 0
XAxis mode: Wavelengths
Number of Pixels in Spectrum: 3648
>>>>>Begin Spectral Data<<<<<
345.52	25.11459
345.736	25.11459
345.952	25.11459
346.168	16.68414
346.384	-61.27913
346.6	-8.60492
346.816	37.76098
347.032	37.76098
347.248	-2.28298
347.464	33.54542
347.68	-19.141
347.896	-12.81942
348.112	-61.27913
348.328	-4.39031
348.544	20.89932
348.76	8.25407
348.975	-29.67646
349.191	-92.87609
349.407	6.14661
349.623	-25.46235
349.839	-21.24814
350.055	1.93177
350.27	4.03918
350.486	-19.141
350.702	46.19237
350.918	63.05626
351.133	25.11459
351.349	1.93177
351.565	-35.99745
351.781	-21.24814
351.996	-54.95905
352.212	-54.95905
352.428	-4.39031
352.644	-33.89048
352.859	-4.39031
353.075	-17.03383
353.291	20.89932
353.506	-12.81942
353.722	4.03918
353.938	-48.63874
354.153	-17.03383
354.369	-33.89048
354.584	-21.24814
354.8	-35.99745
355.016	1.93177
355.231	-84.4508
355.447	67.27246
355.662	-19.141
355.878	29.32996
356.093	-4.39031
356.309	16.68414
356.524	4.03918
356.74	-40.21131
356.955	-6.49763
357.171	-6.49763
357.386	-35.99745
357.602	-67.59898
357.817	-29.67646
358.033	31.43768
358.248	8.25407
358.464	46.19237
358.679	-4.39031
358.895	50.4082
359.11	10.36155
359.325	37.76098
359.541	-63.38577
359.756	20.89932
359.972	41.97663
360.187	20.89932
360.402	-29.67646
360.618	-48.63874
360.833	65.16435
361.048	79.92161
361.264	-38.10439
361.479	-69.70555
361.694	58.84015
361.909	58.84015
362.125	-59.17246
362.34	1.93177
362.555	12.46906
362.77	-99.19478
362.986	14.57659
363.201	25.11459
363.416	-4.39031
363.631	-12.81942
363.847	-12.81942
364.062	6.14661
364.277	20.89932
364.492	-17.03383
364.707	8.25407
364.922	-65.49239
365.138	44.08449
365.353	-6.49763
365.568	-19.141
365.783	31.43768
365.998	54.62413
366.213	-46.53192
366.428	-12.81942
366.643	65.16435
366.858	-33.89048
367.073	-42.31821
367.288	-21.24814
367.503	29.32996
367.718	8.25407
367.933	8.25407
368.148	-10.71218
368.363	4.03918
368.578	10.36155
368.793	-12.81942
369.008	63.05626
369.223	39.86879
369.438	14.57659
369.653	46.19237
369.868	35.65319
370.083	8.25407
370.298	-38.10439
370.513	-25.46235
370.728	58.84015
370.943	12.46906
371.157	23.00695
371.372	-71.81209
371.587	29.32996
371.802	-4.39031
372.017	-10.71218
372.232	-10.71218
372.446	10.36155
372.661	-42.31821
372.876	-25.46235
373.091	63.05626
373.306	-29.67646
373.52	-46.53192
373.735	-99.19478
373.95	12.46906
374.165	-8.60492
374.379	-21.24814
374.594	-6.49763
374.809	-86.55716
375.023	-31.78348
375.238	23.00695
375.453	-59.17246
375.667	67.27246
375.882	-19.141
376.097	71.48875
376.311	14.57659
376.526	-4.39031
376.741	-21.24814
376.955	-10.71218
377.17	-38.10439
377.384	12.46906
377.599	-78.13156
377.813	33.54542
378.028	-46.53192
378.242	-10.71218
378.457	-52.8523
378.672	-35.99745
378.886	12.46906
379.101	67.27246
379.315	14.57659
379.53	-21.24814
379.744	-29.67646
379.958	63.05626
380.173	-42.31821
380.387	6.14661
380.602	4.03918
380.816	6.14661
381.031	-59.17246
381.245	-6.49763
381.459	20.89932
381.674	14.57659
381.888	-12.81942
382.103	-12.81942
382.317	-38.10439
382.531	4.03918
382.746	-2.28298
382.96	23.00695
383.174	-54.95905
383.388	-12.81942
383.603	-8.60492
383.817	-17.03383
384.031	-33.89048
384.246	-57.06577
384.46	16.68414
384.674	-65.49239
384.888	-0.17561
385.103	63.05626
385.317	27.22227
385.531	6.14661
385.745	-40.21131
385.959	25.11459
386.174	96.7884
386.388	41.97663
386.602	6.14661
386.816	-2.28298
387.03	-19.141
387.244	-12.81942
387.458	39.86879
387.672	-44.42508
387.887	4.03918
388.101	-19.141
388.315	39.86879
388.529	6.14661
388.743	16.68414
388.957	-44.42508
389.171	37.76098
389.385	39.86879
389.599	27.22227
389.813	-54.95905
390.027	-4.39031
390.241	-12.81942
390.455	14.57659
390.669	4.03918
390.883	-12.81942
391.097	67.27246
391.311	29.32996
391.525	-35.99745
391.738	-29.67646
391.952	-6.49763
392.166	33.54542
392.38	25.11459
392.594	-0.17561
392.808	29.32996
393.022	44.08449
393.236	41.97663
393.449	44.08449
393.663	41.97663
393.877	1.93177
394.091	-12.81942
394.305	-2.28298
394.518	-38.10439
394.732	-2.28298
394.946	41.97663
395.16	-0.17561
395.373	65.16435
395.587	8.25407
395.801	67.27246
396.015	-4.39031
396.228	-42.31821
396.442	54.62413
396.656	20.89932
396.869	37.76098
397.083	41.97663
397.297	-10.71218
397.51	16.68414
397.724	-21.24814
397.938	-29.67646
398.151	-17.03383
398.365	12.46906
398.578	-76.0251
398.792	46.19237
399.005	14.57659
399.219	-4.39031
399.433	-50.74553
399.646	4.03918
399.86	33.54542
400.073	-54.95905
400.287	-73.91861
400.5	54.62413
400.714	-4.39031
400.927	-2.28298
401.141	-46.53192
401.354	14.57659
401.567	14.57659
401.781	-21.24814
401.994	-17.03383
402.208	8.25407
402.421	6.14661
402.635	-12.81942
402.848	46.19237
403.061	-4.39031
403.275	-29.67646
403.488	-8.60492
403.701	-46.53192
403.915	4.03918
404.128	48.30027
404.341	48.30027
404.555	44.08449
404.768	-38.10439
404.981	-21.24814
405.195	-25.46235
405.408	75.70514
405.621	-21.24814
405.834	-23.35526
406.048	-80.238
406.261	-54.95905
406.474	16.68414
406.687	-14.92664
406.9	31.43768
407.114	-4.39031
407.327	-54.95905
407.54	8.25407
407.753	-52.8523
407.966	20.89932
408.179	-71.81209
408.392	-42.31821
408.605	-35.99745
408.819	18.79172
409.032	-50.74553
409.245	-2.28298
409.458	-48.63874
409.671	41.97663
409.884	-19.141
410.097	4.03918
410.31	31.43768
410.523	-48.63874
410.736	-42.31821
410.949	-12.81942
411.162	48.30027
411.375	-12.81942
411.588	8.25407
411.801	-44.42508
412.014	12.46906
412.227	-4.39031
412.44	16.68414
412.653	29.32996
412.865	1.93177
413.078	-19.141
413.291	20.89932
413.504	4.03918
413.717	-12.81942
413.93	-19.141
414.143	50.4082
414.356	12.46906
414.568	46.19237
414.781	-19.141
414.994	-4.39031
415.207	48.30027
415.42	14.57659
415.632	12.46906
415.845	54.62413
416.058	54.62413
416.271	-12.81942
416.483	-10.71218
416.696	-52.8523
416.909	-10.71218
417.121	-12.81942
417.334	33.54542
417.547	107.33087
417.759	16.68414
417.972	20.89932
418.185	-46.53192
418.397	-63.38577
418.61	-63.38577
418.823	-27.56942
419.035	29.32996
419.248	-12.81942
419.46	77.81336
419.673	63.05626
419.885	-46.53192
420.098	1.93177
420.311	25.11459
420.523	37.76098
420.736	4.03918
420.948	12.46906
421.161	-27.56942
421.373	-12.81942
421.586	37.76098
421.798	14.57659
422.01	-46.53192
422.223	8.25407
422.435	58.84015
422.648	63.05626
422.86	-63.38577
423.073	29.32996
423.285	20.89932
423.497	-17.03383
423.71	-0.17561
423.922	46.19237
424.134	-8.60492
424.347	-10.71218
424.559	33.54542
424.771	54.62413
424.984	-10.71218
425.196	23.00695
425.408	-12.81942
425.621	73.59693
425.833	-65.49239
426.045	33.54542
426.257	-50.74553
426.47	33.54542
426.682	-12.81942
426.894	23.00695
427.106	-21.24814
427.318	16.68414
427.531	23.00695
427.743	-33.89048
427.955	107.33087
428.167	-4.39031
428.379	63.05626
428.591	-69.70555
428.804	4.03918
429.016	39.86879
429.228	29.32996
429.44	41.97663
429.652	-12.81942
429.864	-35.99745
430.076	33.54542
430.288	48.30027
430.5	4.03918
430.712	29.32996
430.924	50.4082
431.136	4.03918
431.348	8.25407
431.56	8.25407
431.772	-12.81942
431.984	37.76098
432.196	67.27246
432.408	124.19996
432.62	29.32996
432.832	12.46906
433.044	-29.67646
433.256	16.68414
433.468	33.54542
433.679	-6.49763
433.891	-38.10439
434.103	-71.81209
434.315	4.03918
434.527	20.89932
434.739	6.14661
434.95	-12.81942
435.162	16.68414
435.374	58.84015
435.586	-61.27913
435.798	-29.67646
436.009	-118.14944
436.221	16.68414
436.433	-42.31821
436.645	-12.81942
436.856	16.68414
437.068	-10.71218
437.28	18.79172
437.491	29.32996
437.703	69.38059
437.915	-10.71218
438.126	-38.10439
438.338	-33.89048
438.55	25.11459
438.761	-19.141
438.973	-10.71218
439.184	37.76098
439.396	41.97663
439.608	105.22233
439.819	-2.28298
440.031	58.84015
440.242	-27.56942
440.454	-19.141
440.665	-0.17561
440.877	33.54542
441.088	96.7884
441.3	-12.81942
441.511	-8.60492
441.723	12.46906
441.934	-33.89048
442.146	29.32996
442.357	20.89932
442.569	-63.38577
442.78	6.14661
442.991	-19.141
443.203	75.70514
443.414	-10.71218
443.626	-27.56942
443.837	37.76098
444.048	-38.10439
444.26	-8.60492
444.471	-25.46235
444.682	73.59693
444.894	-46.53192
445.105	88.35483
445.316	8.25407
445.528	25.11459
445.739	48.30027
445.95	1.93177
446.161	-42.31821
446.373	29.32996
446.584	-33.89048
446.795	48.30027
447.006	41.97663
447.217	-38.10439
447.429	-54.95905
447.64	20.89932
447.851	18.79172
448.062	20.89932
448.273	-4.39031
448.484	10.36155
448.695	6.14661
448.907	-12.81942
449.118	71.48875
449.329	-46.53192
449.54	1.93177
449.751	16.68414
449.962	-0.17561
450.173	-14.92664
450.384	-42.31821
450.595	20.89932
450.806	37.76098
451.017	25.11459
451.228	37.76098
451.439	37.76098
451.65	-42.31821
451.861	23.00695
452.072	39.86879
452.283	-23.35526
452.494	25.11459
452.705	56.73213
452.915	58.84015
453.126	-0.17561
453.337	25.11459
453.548	-92.87609
453.759	-69.70555
453.97	-31.78348
454.181	25.11459
454.391	50.4082
454.602	1.93177
454.813	-12.81942
455.024	65.16435
455.235	113.65661
455.445	50.4082
455.656	-82.34441
455.867	-59.17246
456.078	-2.28298
456.288	20.89932
456.499	-4.39031
456.71	16.68414
456.921	33.54542
457.131	48.30027
457.342	-27.56942
457.553	46.19237
457.763	18.79172
457.974	-46.53192
458.184	46.19237
458.395	27.22227
458.606	39.86879
458.816	67.27246
459.027	23.00695
459.237	65.16435
459.448	20.89932
459.659	69.38059
459.869	-21.24814
460.08	-4.39031
460.29	20.89932
460.501	41.97663
460.711	-19.141
460.922	-8.60492
461.132	20.89932
461.343	-21.24814
461.553	20.89932
461.764	-4.39031
461.974	88.35483
462.184	-8.60492
462.395	-14.92664
462.605	20.89932
462.816	12.46906
463.026	-12.81942
463.236	75.70514
463.447	-4.39031
463.657	-12.81942
463.867	-19.141
464.078	-19.141
464.288	50.4082
464.498	-57.06577
464.709	-27.56942
464.919	37.76098
465.129	79.92161
465.339	27.22227
465.55	-23.35526
465.76	-0.17561
465.97	12.46906
466.18	92.57157
466.391	-35.99745
466.601	-33.89048
466.811	12.46906
467.021	46.19237
467.231	63.05626
467.441	-42.31821
467.651	58.84015
467.862	-35.99745
468.072	29.32996
468.282	14.57659
468.492	88.35483
468.702	-10.71218
468.912	29.32996
469.122	58.84015
469.332	-4.39031
469.542	-12.81942
469.752	84.13817
469.962	-35.99745
470.172	31.43768
470.382	29.32996
470.592	101.00532
470.802	143.17933
471.012	71.48875
471.222	111.54801
471.432	-29.67646
471.642	14.57659
471.852	44.08449
472.062	-4.39031
472.272	65.16435
472.482	73.59693
472.691	-10.71218
472.901	113.65661
473.111	88.35483
473.321	-4.39031
473.531	50.4082
473.741	58.84015
473.95	4.03918
474.16	60.94819
474.37	71.48875
474.58	31.43768
474.79	58.84015
474.999	82.02988
475.209	37.76098
475.419	69.38059
475.628	109.43943
475.838	96.7884
476.048	63.05626
476.258	101.00532
476.467	88.35483
476.677	90.46319
476.886	84.13817
477.096	109.43943
477.306	96.7884
477.515	90.46319
477.725	77.81336
477.935	65.16435
478.144	111.54801
478.354	77.81336
478.563	122.09124
478.773	73.59693
478.982	82.02988
479.192	48.30027
479.401	90.46319
479.611	136.85268
479.82	113.65661
480.03	134.74384
480.239	147.39721
480.449	109.43943
480.658	147.39721
480.868	149.50617
481.077	147.39721
481.287	160.05133
481.496	143.17933
481.705	185.36184
481.915	117.87389
482.124	149.50617
482.333	143.17933
482.543	79.92161
482.752	109.43943
482.961	149.50617
483.171	183.25252
483.38	168.48784
483.589	111.54801
483.799	155.83321
484.008	176.92467
484.217	273.97131
484.426	290.85314
484.636	198.0182
484.845	231.77202
485.054	172.70621
485.263	246.5409
485.472	244.431
485.682	269.75104
485.891	257.09068
486.1	345.72712
486.309	240.21127
486.518	290.85314
486.727	225.4428
486.936	233.8818
487.146	254.98069
487.355	299.2945
487.564	307.73615
487.773	339.39489
487.982	240.21127
488.191	379.50161
488.4	309.84661
488.609	295.07378
488.818	366.83566
489.027	309.84661
489.236	299.2945
489.445	362.61382
489.654	383.72372
489.863	354.17033
490.072	352.0595
490.281	409.05781
490.49	307.73615
490.698	379.50161
490.907	328.84154
491.116	436.5057
491.325	377.39057
491.534	349.94869
491.743	468.17963
491.952	487.18564
492.16	501.96892
492.369	501.96892
492.578	419.61437
492.787	476.6266
492.996	544.21075
493.204	628.71068
493.413	533.64976
493.622	609.69639
493.831	571.67092
494.039	603.35852
494.248	463.95624
494.457	635.049
494.665	561.10904
494.874	622.37247
495.083	575.89576
495.291	645.61311
495.5	632.93621
495.709	645.61311
495.917	687.87252
496.126	670.9682
496.335	706.89075
496.543	649.83884
496.752	700.55124
496.96	753.38348
497.169	641.38743
497.377	814.67687
497.586	687.87252
497.794	873.8641
498.003	706.89075
498.211	759.72379
498.42	681.53331
498.628	780.85881
498.837	848.4973
499.045	833.70058
499.254	804.10846
499.462	886.54795
499.671	856.95276
499.879	1068.37849
500.087	880.20598
500.296	865.40836
500.504	892.88998
500.713	856.95276
500.921	939.40039
501.129	933.05785
501.338	899.23209
501.546	1051.46204
501.754	941.51459
501.962	1043.00395
502.171	1004.94371
502.379	1186.80231
502.587	1045.11847
502.795	1038.77494
503.004	1026.08805
503.212	1144.50651
503.42	1036.66044
503.628	1112.78575
503.837	1028.20252
504.045	1279.85784
504.253	1161.42464
504.461	1273.51298
504.669	1296.77759
504.877	1256.59344
505.085	1178.34303
505.294	1237.55917
505.502	1161.42464
505.71	1309.46748
505.918	1281.9728
506.126	1231.21446
506.334	1256.59344
506.542	1474.44013
506.75	1229.09956
506.958	1351.76759
507.166	1288.3177
507.374	1389.83816
507.582	1362.34271
507.79	1465.97992
507.998	1375.0329
508.206	1446.94445
508.414	1271.39803
508.622	1580.19175
508.83	1341.19251
509.037	1506.16584
509.245	1355.99764
509.453	1605.57166
509.661	1499.82071
509.869	1690.16909
510.077	1571.73173
510.285	1704.9732
510.492	1660.56045
510.7	1728.23648
510.908	1497.70566
511.116	1603.45668
511.324	1611.9166
511.531	1603.45668
511.739	1601.3417
511.947	1825.51444
512.155	1548.46654
512.362	1804.3678
512.57	1664.79029
512.778	1630.95129
512.985	1614.03157
513.193	1770.53228
513.401	1762.07324
513.608	1821.28515
513.816	1846.66063
514.024	1795.90902
514.231	1721.89199
514.439	1863.57724
514.646	1707.08806
514.854	1888.95155
515.061	1838.20221
515.269	1977.75541
515.477	1869.92089
515.684	1950.2696
515.892	2026.38155
516.099	1992.55503
516.307	1821.28515
516.514	2117.2815
516.722	1863.57724
516.929	2091.91543
517.136	1933.35475
517.344	2045.40821
517.551	2058.09234
517.759	2055.97834
517.966	2011.58266
518.173	2218.73435
518.381	1956.61257
518.588	2271.56659
518.796	2208.16724
519.003	2277.90607
519.21	2182.80531
519.418	2379.32616
519.625	2311.71525
519.832	2379.32616
520.039	2339.18341
520.247	2531.41152
520.454	2288.4717
520.661	2339.18341
520.868	2261.00059
521.076	2392.00206
521.283	2349.74764
521.49	2516.62797
521.697	2299.03709
521.904	2394.11468
522.112	2381.43884
522.319	2594.76313
522.526	2322.28012
522.733	2658.10385
522.94	2449.03895
523.147	2628.54623
523.354	2353.97326
523.561	2734.0977
523.768	2548.30632
523.975	2670.77065
524.183	2480.72272
524.39	2873.37471
524.597	2717.21163
524.804	2753.09351
525.011	2883.92352
525.218	2734.0977
525.425	2691.88096
525.632	2841.72614
525.838	2662.32617
526.045	2909.2392
526.252	2835.39605
526.459	2985.17359
526.666	2907.12964
526.873	3132.76728
527.08	2818.51518
527.287	2985.17359
527.494	2786.86117
527.701	2902.91048
527.907	2814.29482
528.114	3200.21277
528.321	2964.08263
528.528	3107.47096
528.735	2966.1918
528.941	2942.99019
529.148	2970.41008
529.355	3278.17555
529.562	2961.97346
529.768	3320.30796
529.975	3063.19691
530.182	3214.96423
530.388	3065.30536
530.595	3383.49366
530.802	3221.28604
531.008	3476.13731
531.215	3240.25057
531.422	3455.08498
531.628	3303.45582
531.835	3459.29559
532.042	3358.22126
532.248	3408.76352
532.455	3265.53449
532.661	3446.66354
532.868	3476.13731
533.074	3655.0081
533.281	3332.94635
533.487	3730.72415
533.694	3417.18625
533.9	3728.62127
534.107	3606.62104
534.313	3730.72415
534.52	3375.0698
534.726	3631.8677
534.933	3585.58008
535.139	3655.0081
535.345	3690.766
535.552	3833.74176
535.758	3791.69944
535.965	3722.31249
536.171	3686.55947
536.377	3873.67463
536.584	3705.48823
536.79	3764.36772
536.996	3722.31249
537.203	3900.99297
537.409	3806.41515
537.615	3934.61088
537.821	3913.60029
538.028	3896.79037
538.234	3905.19549
538.44	4182.38096
538.646	4064.8311
538.853	3997.63049
539.059	3976.62599
539.265	4157.19724
539.471	3997.63049
539.677	4239.03318
539.883	4125.71333
540.09	4150.90083
540.296	4014.43262
540.502	4058.53194
540.708	4245.32692
540.914	4341.8067
541.12	4276.79271
541.326	4423.56895
541.532	4199.16842
541.738	4467.58101
541.944	4215.95452
542.15	4484.34497
542.356	4381.64372
542.562	4450.81565
542.768	4369.06446
542.974	4452.9114
543.18	4526.24868
543.386	4385.83664
543.592	4396.31854
543.798	4706.33325
544.004	4404.70367
544.21	4488.53574
544.415	4434.04889
544.621	4702.14712
544.827	4404.70367
545.033	4729.35535
545.239	4612.12357
545.445	4746.09698
545.651	4578.61587
545.856	4777.48363
546.062	4829.78336
546.268	4752.37472
546.474	4620.4996
546.679	4727.26254
546.885	4626.78139
547.091	4693.77459
547.297	4781.66813
547.502	4944.79256
547.708	4754.46725
547.914	4840.2416
548.119	4746.09698
548.325	4865.33905
548.531	4664.46789
548.736	4984.50688
548.942	4779.57589
549.147	5118.22011
549.353	4959.42512
549.559	5103.59985
549.764	5059.73224
549.97	5099.42242
550.175	4921.79626
550.381	5020.0337
550.586	5080.62285
550.792	5195.47973
550.997	5205.91777
551.203	5243.4899
551.408	5149.54542
551.614	5220.53005
551.819	5245.57702
552.025	5278.96774
552.23	5095.2449
552.435	5354.07495
552.641	5404.12955
552.846	5404.12955
553.052	5266.44692
553.257	5483.35498
553.462	5412.47067
553.668	5406.21486
553.873	5197.56738
554.078	5399.95885
554.283	5326.9564
554.489	5533.3746
554.694	5387.44618
554.899	5489.60818
555.105	5529.20682
555.31	5581.29733
555.515	5714.5819
555.72	5772.8635
555.925	5506.28232
556.131	5793.67388
556.336	5610.46159
556.541	5762.45743
556.746	5745.80649
556.951	5731.23567
557.156	5470.84796
557.361	5866.4916
557.567	5693.76256
557.772	6009.96191
557.977	5662.52912
558.182	5876.89178
558.387	5654.1993
558.592	5970.46679
558.797	5916.40705
559.002	6018.27559
559.207	5716.6637
559.412	5899.77008
559.617	5575.04725
559.822	5801.99737
560.027	5579.21399
560.232	6030.7454
560.437	5974.62457
560.642	6061.91621
560.847	6028.66715
561.051	6066.07192
561.256	5864.4115
561.461	6180.31705
561.666	6147.08943
561.871	6302.79199
562.076	5987.09735
562.281	6279.96386
562.485	6003.7264
562.69	6095.15925
562.895	5957.99288
563.1	6003.7264
563.305	5955.91381
563.509	6240.52679
563.714	5889.37121
563.919	6255.05722
564.123	6014.11879
564.328	6327.69218
564.533	6219.76704
564.737	6400.29852
564.942	6242.60263
565.147	6574.43749
565.351	6261.2842
565.556	6412.74246
565.761	6394.07624
565.965	6373.33379
566.17	6275.81299
566.374	6275.81299
566.579	6564.07665
566.784	6518.4821
566.988	6499.82655
567.193	6578.58166
567.397	6454.21619
567.602	6717.35817
567.806	6319.39249
568.011	6634.51896
568.215	6572.36537
568.42	6613.8034
568.624	6526.77285
568.828	6636.59039
569.033	6462.50982
569.237	6752.55371
569.442	6783.60311
569.646	6607.58828
569.85	6580.65371
570.055	6818.78622
570.259	6611.73172
570.463	6876.72052
570.668	6700.79327
570.872	6785.67289
571.076	6735.99193
571.281	6951.18133
571.485	6684.2269
571.689	6735.99193
571.893	6742.20277
572.098	6893.2699
572.302	6944.97738
572.506	7108.28046
572.71	6783.60311
572.914	6833.27147
573.119	6634.51896
573.323	6901.54405
573.527	7054.55061
573.731	7089.68337
573.935	6824.99432
574.139	7058.68421
574.343	6874.65174
574.547	7093.81622
574.751	7081.41742
574.955	7205.36926
575.159	7240.47442
575.364	7081.41742
575.568	6820.85561
575.772	7120.67751
575.976	7164.06088
576.18	7259.05693
576.383	7155.79814
576.587	7519.0259
576.791	7089.68337
576.995	7246.66879
577.199	7236.34474
577.403	7271.44427
577.607	7226.02013
577.811	7376.70478
