Data from mixed_try6.1_USB4F045381__31__00315.txt Node

Date: Thu Apr 03 20:34:25 EDT 2025
User: mmckonesweet
Spectrometer: USB4F04538
Trigger mode: 4
Integration Time (sec): 2.700000E-3
Scans to average: 1
Electric dark correction enabled: true
Nonlinearity correction enabled: true
Boxcar width: 0
XAxis mode: Wavelengths
Number of Pixels in Spectrum: 3648
>>>>>Begin Spectral Data<<<<<
345.52	-22.12611
345.736	-22.12611
345.952	-22.12611
346.168	-89.54113
346.384	45.31408
346.6	7.37596
346.816	-24.23321
347.032	-41.08919
347.248	-7.37567
347.464	9.48343
347.68	-9.48295
347.896	43.20621
348.112	26.34407
348.328	-38.98228
348.544	5.26851
348.76	36.88273
348.975	-7.37567
349.191	43.20621
349.407	26.34407
349.623	-62.1569
349.839	74.82672
350.055	38.99053
350.27	13.69845
350.486	-15.80464
350.702	-3.16104
350.918	-76.90279
351.133	-38.98228
351.349	26.34407
351.565	38.99053
351.781	-47.40976
351.996	9.48343
352.212	17.91356
352.428	-7.37567
352.644	1.05369
352.859	-41.08919
353.075	-47.40976
353.291	-53.73012
353.506	43.20621
353.722	9.48343
353.938	3.16109
354.153	-57.94356
354.369	26.34407
354.584	26.34407
354.8	-38.98228
355.016	-24.23321
355.231	-32.6614
355.447	-5.26836
355.662	79.04317
355.878	22.12877
356.093	-20.01897
356.309	55.85379
356.524	-24.23321
356.74	-79.00925
356.955	20.02115
357.171	-51.62336
357.386	13.69845
357.602	-26.3403
357.817	-3.16104
358.033	-15.80464
358.248	43.20621
358.464	3.16109
358.679	-41.08919
358.895	43.20621
359.11	-15.80464
359.325	30.55946
359.541	17.91356
359.756	-15.80464
359.972	-20.01897
360.187	-3.16104
360.402	-24.23321
360.618	24.2364
360.833	26.34407
361.048	-57.94356
361.264	-53.73012
361.479	-137.97932
361.694	-38.98228
361.909	53.7458
362.125	-81.11567
362.34	-13.69743
362.555	7.37596
362.77	81.15143
362.986	76.93493
363.201	87.47635
363.416	17.91356
363.631	26.34407
363.847	-5.26836
364.062	28.45175
364.277	-11.5902
364.492	62.17789
364.707	-34.76838
364.922	62.17789
365.138	30.55946
365.353	28.45175
365.568	-9.48295
365.783	-55.83685
365.998	-36.87534
366.213	43.20621
366.428	17.91356
366.643	1.05369
366.858	-15.80464
367.073	-28.44736
367.288	22.12877
367.503	-5.26836
367.718	17.91356
367.933	70.61035
368.148	-5.26836
368.363	-24.23321
368.578	26.34407
368.793	64.28597
369.008	-20.01897
369.223	22.12877
369.438	36.88273
369.653	-62.1569
369.868	36.88273
370.083	7.37596
370.298	1.05369
370.513	72.71852
370.728	-41.08919
370.943	-41.08919
371.157	1.05369
371.372	-81.11567
371.587	17.91356
371.802	-45.30293
372.017	30.55946
372.232	-9.48295
372.446	30.55946
372.661	-5.26836
372.876	11.59093
373.091	26.34407
373.306	-3.16104
373.52	-24.23321
373.735	1.05369
373.95	72.71852
374.165	17.91356
374.379	-66.37014
374.594	-7.37567
374.809	-30.55439
375.023	76.93493
375.238	34.77495
375.453	30.55946
375.667	-64.26353
375.882	-1.05368
376.097	-49.51657
376.311	-57.94356
376.526	17.91356
376.741	5.26851
376.955	-7.37567
377.17	49.5299
377.384	9.48343
377.599	9.48343
377.813	-72.68981
378.028	13.69845
378.242	32.66719
378.457	28.45175
378.672	-7.37567
378.886	41.09836
379.101	76.93493
379.315	-22.12611
379.53	51.63784
379.744	3.16109
379.958	-57.94356
380.173	-9.48295
380.387	-7.37567
380.602	-28.44736
380.816	-97.96616
381.031	-62.1569
381.245	-30.55439
381.459	-38.98228
381.674	57.9618
381.888	36.88273
382.103	-32.6614
382.317	-5.26836
382.531	1.05369
382.746	-7.37567
382.96	43.20621
383.174	24.2364
383.388	51.63784
383.603	26.34407
383.817	-5.26836
384.031	1.05369
384.246	-32.6614
384.46	-24.23321
384.674	32.66719
384.888	38.99053
385.103	7.37596
385.317	-1.05368
385.531	76.93493
385.745	-20.01897
385.959	89.5847
386.174	1.05369
386.388	-3.16104
386.602	-20.01897
386.816	-70.58328
387.03	-5.26836
387.244	36.88273
387.458	1.05369
387.672	1.05369
387.887	-3.16104
388.101	91.69308
388.315	-3.16104
388.529	17.91356
388.743	28.45175
388.957	43.20621
389.171	-64.26353
389.385	-7.37567
389.599	1.05369
389.813	-11.5902
390.027	30.55946
390.241	20.02115
390.455	85.36802
390.669	-62.1569
390.883	-83.22208
391.097	-47.40976
391.311	-13.69743
391.525	34.77495
391.738	9.48343
391.952	-3.16104
392.166	55.85379
392.38	-38.98228
392.594	26.34407
392.808	-7.37567
393.022	-15.80464
393.236	60.06984
393.449	43.20621
393.663	60.06984
393.877	-11.5902
394.091	17.91356
394.305	-22.12611
394.518	38.99053
394.732	55.85379
394.946	-30.55439
395.16	-7.37567
395.373	38.99053
395.587	9.48343
395.801	7.37596
396.015	-30.55439
396.228	1.05369
396.442	34.77495
396.656	70.61035
396.869	66.39408
397.083	20.02115
397.297	-7.37567
397.51	38.99053
397.724	20.02115
397.938	-15.80464
398.151	-41.08919
398.365	22.12877
398.578	-26.3403
398.792	22.12877
399.005	-64.26353
399.219	53.7458
399.433	13.69845
399.646	7.37596
399.86	13.69845
400.073	-7.37567
400.287	55.85379
400.5	22.12877
400.714	83.25972
400.927	-41.08919
401.141	55.85379
401.354	22.12877
401.567	72.71852
401.781	-89.54113
401.994	57.9618
402.208	20.02115
402.421	57.9618
402.635	47.42198
402.848	51.63784
403.061	1.05369
403.275	-15.80464
403.488	-45.30293
403.701	-3.16104
403.915	22.12877
404.128	41.09836
404.341	26.34407
404.555	-13.69743
404.768	1.05369
404.981	-47.40976
405.195	5.26851
405.408	-5.26836
405.621	121.21262
405.834	53.7458
406.048	15.80599
406.261	-13.69743
406.474	64.28597
406.687	-22.12611
406.9	13.69845
407.114	36.88273
407.327	26.34407
407.54	-24.23321
407.753	34.77495
407.966	22.12877
408.179	-24.23321
408.392	-32.6614
408.605	9.48343
408.819	36.88273
409.032	-15.80464
409.245	-3.16104
409.458	36.88273
409.671	-68.47672
409.884	114.88664
410.097	5.26851
410.31	41.09836
410.523	-5.26836
410.736	13.69845
410.949	17.91356
411.162	17.91356
411.375	38.99053
411.588	24.2364
411.801	-5.26836
412.014	55.85379
412.227	26.34407
412.44	-26.3403
412.653	28.45175
412.865	26.34407
413.078	-7.37567
413.291	-7.37567
413.504	43.20621
413.717	34.77495
413.93	11.59093
414.143	5.26851
414.356	-30.55439
414.568	-11.5902
414.781	72.71852
414.994	36.88273
415.207	64.28597
415.42	47.42198
415.632	3.16109
415.845	3.16109
416.058	-5.26836
416.271	1.05369
416.483	15.80599
416.696	-20.01897
416.909	11.59093
417.121	74.82672
417.334	-15.80464
417.547	26.34407
417.759	47.42198
417.972	43.20621
418.185	9.48343
418.397	62.17789
418.61	3.16109
418.823	-11.5902
419.035	22.12877
419.248	-24.23321
419.46	43.20621
419.673	-13.69743
419.885	-7.37567
420.098	85.36802
420.311	17.91356
420.523	45.31408
420.736	-11.5902
420.948	-24.23321
421.161	-57.94356
421.373	53.7458
421.586	43.20621
421.798	-11.5902
422.01	47.42198
422.223	-3.16104
422.435	-7.37567
422.648	13.69845
422.86	55.85379
423.073	5.26851
423.285	1.05369
423.497	-3.16104
423.71	22.12877
423.922	47.42198
424.134	-38.98228
424.347	30.55946
424.559	-20.01897
424.771	60.06984
424.984	47.42198
425.196	-7.37567
425.408	-13.69743
425.621	-26.3403
425.833	43.20621
426.045	34.77495
426.257	-7.37567
426.47	3.16109
426.682	57.9618
426.894	28.45175
427.106	68.5022
427.318	24.2364
427.531	-15.80464
427.743	26.34407
427.955	-76.90279
428.167	102.23527
428.379	47.42198
428.591	-41.08919
428.804	-102.17852
429.016	13.69845
429.228	102.23527
429.44	72.71852
429.652	20.02115
429.864	-20.01897
430.076	32.66719
430.288	20.02115
430.5	76.93493
430.712	85.36802
430.924	53.7458
431.136	36.88273
431.348	-51.62336
431.56	-7.37567
431.772	11.59093
431.984	26.34407
432.196	11.59093
432.408	3.16109
432.62	41.09836
432.832	-11.5902
433.044	51.63784
433.256	-20.01897
433.468	-20.01897
433.679	34.77495
433.891	22.12877
434.103	-5.26836
434.315	26.34407
434.527	7.37596
434.739	43.20621
434.95	-49.51657
435.162	17.91356
435.374	43.20621
435.586	-64.26353
435.798	-22.12611
436.009	13.69845
436.221	13.69845
436.433	110.66943
436.645	20.02115
436.856	64.28597
437.068	13.69845
437.28	1.05369
437.491	34.77495
437.703	68.5022
437.915	62.17789
438.126	-7.37567
438.338	68.5022
438.55	60.06984
438.761	43.20621
438.973	11.59093
439.184	-22.12611
439.396	28.45175
439.608	55.85379
439.819	1.05369
440.031	-15.80464
440.242	-28.44736
440.454	-13.69743
440.665	47.42198
440.877	76.93493
441.088	53.7458
441.3	98.01833
441.511	-47.40976
441.723	9.48343
441.934	70.61035
442.146	13.69845
442.357	9.48343
442.569	51.63784
442.78	15.80599
442.991	9.48343
443.203	93.80147
443.414	-5.26836
443.626	60.06984
443.837	43.20621
444.048	-30.55439
444.26	45.31408
444.471	104.34378
444.682	76.93493
444.894	20.02115
445.105	43.20621
445.316	30.55946
445.528	87.47635
445.739	53.7458
445.95	62.17789
446.161	-28.44736
446.373	81.15143
446.584	1.05369
446.795	93.80147
447.006	53.7458
447.217	60.06984
447.429	30.55946
447.64	22.12877
447.851	30.55946
448.062	45.31408
448.273	1.05369
448.484	11.59093
448.695	76.93493
448.907	28.45175
449.118	43.20621
449.329	55.85379
449.54	13.69845
449.751	51.63784
449.962	38.99053
450.173	108.56086
450.384	3.16109
450.595	38.99053
450.806	76.93493
451.017	85.36802
451.228	26.34407
451.439	11.59093
451.65	45.31408
451.861	9.48343
452.072	123.32132
452.283	20.02115
452.494	-3.16104
452.705	20.02115
452.915	41.09836
453.126	85.36802
453.337	-3.16104
453.548	-5.26836
453.759	51.63784
453.97	-11.5902
454.181	60.06984
454.391	17.91356
454.602	34.77495
454.813	102.23527
455.024	51.63784
455.235	102.23527
455.445	28.45175
455.656	76.93493
455.867	11.59093
456.078	51.63784
456.288	20.02115
456.499	66.39408
456.71	85.36802
456.921	55.85379
457.131	-36.87534
457.342	53.7458
457.553	199.24872
457.763	-47.40976
457.974	51.63784
458.184	22.12877
458.395	72.71852
458.606	60.06984
458.816	28.45175
459.027	30.55946
459.237	62.17789
459.448	45.31408
459.659	9.48343
459.869	144.40954
460.08	-5.26836
460.29	129.64756
460.501	108.56086
460.711	68.5022
460.922	102.23527
461.132	110.66943
461.343	91.69308
461.553	51.63784
461.764	121.21262
461.974	85.36802
462.184	119.10394
462.395	95.90989
462.605	28.45175
462.816	81.15143
463.026	76.93493
463.236	85.36802
463.447	76.93493
463.657	144.40954
463.867	51.63784
464.078	85.36802
464.288	116.99528
464.498	169.71819
464.709	60.06984
464.919	68.5022
465.129	106.45231
465.339	152.84542
465.55	106.45231
465.76	129.64756
465.97	95.90989
466.18	87.47635
466.391	144.40954
466.601	106.45231
466.811	207.68674
467.021	188.70164
467.231	70.61035
467.441	129.64756
467.651	178.15507
467.862	182.37364
468.072	146.51847
468.282	93.80147
468.492	182.37364
468.702	216.12509
468.912	228.7832
469.122	135.97399
469.332	188.70164
469.542	161.28164
469.752	186.59229
469.962	190.81102
470.172	195.02983
470.382	203.46769
470.592	203.46769
470.802	199.24872
471.012	279.42261
471.222	228.7832
471.432	315.29871
471.642	262.54158
471.852	245.66178
472.062	237.22233
472.272	323.7409
472.482	279.42261
472.691	264.65165
472.901	264.65165
473.111	279.42261
473.321	313.1882
473.531	340.62615
473.741	378.62201
473.95	431.403
474.16	399.73318
474.37	488.41755
474.58	380.73305
474.79	473.63494
474.999	475.74669
475.209	397.62199
475.419	397.62199
475.628	596.14053
475.838	473.63494
476.048	513.76086
476.258	469.41147
476.467	551.77967
476.677	585.57789
476.886	642.61991
477.096	651.07135
477.306	657.41006
477.515	568.67835
477.725	602.47827
477.935	756.72974
478.144	661.63592
478.354	655.29714
478.563	763.0701
478.773	758.84318
478.982	839.16122
479.192	786.31885
479.401	777.86462
479.611	803.22777
479.82	796.88685
480.03	989.26206
480.239	883.55312
480.449	972.34743
480.658	1033.66492
480.868	1023.09256
481.077	1080.18497
481.287	923.72034
481.496	1101.33129
481.705	1137.28114
481.915	1143.62536
482.124	1160.54348
482.333	1236.67796
482.543	1251.48236
482.752	1378.3817
482.961	1259.94209
483.171	1361.46145
483.38	1289.55143
483.589	1501.05449
483.799	1380.49674
484.008	1503.16953
484.217	1439.71802
484.426	1530.66505
484.636	1581.4255
484.845	1746.38861
485.054	1627.9551
485.263	1864.81073
485.472	1644.8747
485.682	1839.43574
485.891	1735.81459
486.1	1661.79415
486.309	1911.32966
486.518	1907.10077
486.727	1879.61248
486.936	2274.91244
487.146	1951.50296
487.355	2027.61478
487.564	2021.27245
487.773	2236.87405
487.982	2012.81591
488.191	2327.73854
488.4	2184.03821
488.609	2249.55384
488.818	2224.19394
489.027	2431.25977
489.236	2410.135
489.445	2511.52399
489.654	2524.19581
489.863	2498.85176
490.072	2471.39387
490.281	2549.53821
490.49	2479.84265
490.698	2595.99486
490.907	2555.87354
491.116	2716.33212
491.325	2762.76689
491.534	2766.98791
491.743	2853.50681
491.952	2859.83655
492.16	2796.53355
492.369	3011.7109
492.578	2788.09221
492.787	2870.38581
492.996	2988.51285
493.204	3180.36726
493.413	3102.37629
493.622	3252.01492
493.831	3068.64369
494.039	3275.19091
494.248	3119.24106
494.457	3342.60026
494.665	3306.79123
494.874	3332.06871
495.083	3460.52367
495.291	3489.99578
495.5	3428.94249
495.709	3607.84837
495.917	3477.36531
496.126	3414.20323
496.335	3591.01584
496.543	3734.05369
496.752	3727.74506
496.96	3679.37315
497.169	3525.77857
497.377	3719.33328
497.586	3795.02808
497.794	3916.9271
498.003	3818.15199
498.211	3914.82597
498.42	3893.81348
498.628	3940.03829
498.837	3887.50934
499.045	4189.90051
499.254	3931.63451
499.462	4078.6536
499.671	4099.64808
499.879	4137.43289
500.087	4244.4528
500.296	4263.33293
500.504	4257.03975
500.713	4269.62593
500.921	4189.90051
501.129	4372.38406
501.338	4263.33293
501.546	4412.21506
501.754	4278.01628
501.962	4519.09076
502.171	4544.22965
502.379	4506.52012
502.587	4479.28101
502.795	4636.37818
503.004	4466.70785
503.212	4891.65298
503.42	4590.30931
503.628	4722.20484
503.837	4707.55418
504.045	4728.48335
504.253	4812.17737
504.461	5012.89404
504.669	4837.27849
504.877	5102.72956
505.085	4933.46897
505.294	5094.37457
505.502	4766.15015
505.71	5154.9398
505.918	4820.54478
506.126	5148.67534
506.334	4891.65298
506.542	5236.35873
506.75	5086.01922
506.958	5188.34673
507.166	5012.89404
507.374	5190.43446
507.582	5190.43446
507.79	5177.9077
507.998	5090.19694
508.206	5505.41392
508.414	5280.18499
508.622	5455.38672
508.83	5340.69001
509.037	5159.11599
509.245	5332.34566
509.453	5878.10509
509.661	5255.14268
509.869	5665.82623
510.077	5401.17531
510.285	5561.6783
510.492	5476.23303
510.7	5605.42761
510.908	5597.09521
511.116	5576.26256
511.324	5659.57902
511.531	5736.61313
511.739	5784.48292
511.947	5763.6715
512.155	5651.24907
512.362	5803.21118
512.57	5778.23974
512.778	5726.20501
512.985	5830.25973
513.193	6050.66069
513.401	5907.22224
513.608	6002.86034
513.816	6137.91617
514.024	5967.52164
514.231	5747.02067
514.439	6135.83914
514.646	5892.66425
514.854	6233.43414
515.061	5925.93797
515.269	6225.1302
515.477	6272.87273
515.684	6127.53079
515.892	6056.8946
516.099	6349.64997
516.307	6287.40061
516.514	6552.85176
516.722	6218.902
516.929	6644.01282
517.136	6212.67358
517.344	6382.84104
517.551	6310.22782
517.759	6490.67083
517.966	6399.43433
518.173	6490.67083
518.381	6639.8701
518.588	6673.00925
518.796	6573.57411
519.003	6697.85974
519.21	6673.00925
519.418	6784.81048
519.625	6561.14098
519.832	6768.25155
520.039	6683.36402
520.247	6935.84342
520.454	6975.13356
520.661	6981.33652
520.868	7041.28803
521.076	7043.35498
521.283	6762.04157
521.49	6946.18372
521.697	6809.64614
521.904	7111.55198
522.112	6931.70714
522.319	7223.09473
522.526	6838.61693
522.733	7214.83452
522.94	6987.53927
523.147	7326.31756
523.354	7268.51955
523.561	7392.3514
523.768	7303.61325
523.975	7252.00267
524.183	7309.8056
524.39	7212.76941
524.597	7425.35995
524.804	7489.29823
525.011	7332.50918
525.218	7483.11156
525.425	7458.36295
525.632	7668.62764
525.838	7670.68796
526.045	7629.47753
526.252	7474.86237
526.459	7746.90497
526.666	7443.92482
526.873	7781.91395
527.08	7897.19504
527.287	8082.33312
527.494	7674.80853
527.701	8059.71397
527.907	7870.43916
528.114	7713.9498
528.321	7841.62122
528.528	8067.93939
528.735	7808.68144
528.941	8127.56411
529.148	7755.14292
529.355	8308.39168
529.562	7960.9835
529.768	8271.41666
529.975	7860.1475
530.182	8209.77747
530.388	8207.72253
530.595	8306.33768
530.802	8181.00642
531.008	8400.80157
531.215	8470.59642
531.422	8365.89579
531.628	8462.38641
531.835	8550.62805
532.042	8384.37601
532.248	8636.78385
532.455	8470.59642
532.661	8526.00601
532.868	8519.85007
533.074	8784.4033
533.281	8556.78313
533.487	9128.4858
533.694	8806.94791
533.9	9150.99779
534.107	8636.78385
534.313	8835.63787
534.52	8786.4529
534.726	8995.41769
534.933	8606.01771
535.139	8907.34735
535.345	8856.12854
535.552	8972.89118
535.758	8940.12154
535.965	9067.07886
536.171	8909.39587
536.377	8798.75012
536.584	9128.4858
536.79	9200.10772
536.996	9105.97172
537.203	9236.93376
537.409	9112.11213
537.615	9463.90866
537.821	9185.785
538.028	9371.91622
538.234	9296.25315
538.44	9531.34902
538.646	9373.96085
538.853	9283.98132
539.059	9388.27284
539.265	9655.96613
539.471	9265.57246
539.677	9445.5128
539.883	9363.73752
540.09	9727.44163
540.296	9666.17807
540.502	9510.91438
540.708	9676.38962
540.914	9939.71676
541.12	9890.74446
541.326	10115.1326
541.532	9641.66876
541.738	9907.0695
541.944	9658.00855
542.15	9996.84052
542.356	9692.72731
542.562	9935.63606
542.768	9702.93786
542.974	10000.92036
543.18	9988.68068
543.386	10139.60089
543.592	10086.5837
543.798	10196.68582
544.004	10335.27609
544.21	10312.86129
544.415	10094.74081
544.621	10282.29306
544.827	10453.43684
545.033	10538.97437
545.239	10347.50167
545.445	10673.34573
545.651	10223.18586
545.856	10371.95139
546.062	10410.65958
546.268	10563.40955
546.474	10196.68582
546.679	10341.38894
546.885	10369.91398
547.091	10376.02616
547.297	10353.61428
547.502	10477.87843
547.708	10512.50087
547.914	10549.15592
548.119	10832.08003
548.325	10587.84294
548.531	10545.08333
548.736	10978.54101
548.942	10600.05895
549.147	10622.45383
549.353	10685.55865
549.559	10907.35209
549.764	10893.11264
549.97	10732.37081
550.175	10420.84516
550.381	11145.27335
550.586	10864.63205
550.792	11063.94966
550.997	10980.57477
551.203	11129.00999
551.408	10889.04412
551.614	11021.24777
551.819	11039.54917
552.025	11293.64551
552.23	11600.38333
552.435	11492.74537
552.641	11289.58125
552.846	11425.71206
553.052	11267.2271
553.257	11393.20725
553.462	11366.79525
553.668	11513.05644
553.873	11620.68945
554.078	11545.55218
554.283	11527.27362
554.489	11443.99491
554.694	11289.58125
554.899	11710.02566
555.105	11360.69993
555.31	11474.4646
555.515	11413.52305
555.72	11515.08749
555.925	11470.4021
556.131	11543.52127
556.336	11580.07628
556.541	11815.58279
556.746	11614.59771
556.951	11582.10703
557.156	11600.38333
557.361	12055.03229
557.567	11827.76096
557.772	12107.77743
557.977	11979.9628
558.182	11904.88235
558.387	11752.65733
558.592	12121.97717
558.797	11880.52953
559.002	12142.26186
559.207	11799.34475
559.412	11850.08681
559.617	11827.76096
559.822	12294.37351
560.027	11738.4472
560.232	12117.92014
560.437	11955.6136
560.642	12168.63083
560.847	12456.58226
561.051	12310.59636
561.256	12128.06265
561.461	12197.02678
561.666	12304.51284
561.871	12476.85533
562.076	12377.51094
562.281	12432.2537
562.485	12245.70222
562.69	12326.81877
562.895	12107.77743
563.1	12551.86008
563.305	12296.40139
563.509	12505.23654
563.714	12367.37285
563.919	12537.67067
564.123	12513.34523
564.328	12422.11652
564.533	12557.94117
564.737	12450.50021
564.942	12391.70398
565.147	12965.25296
565.351	12683.6045
565.556	12940.94211
565.761	12564.0222
565.965	12934.86428
566.17	12456.58226
566.374	12857.87433
566.579	12855.84817
566.784	12645.09725
566.988	12675.49789
567.193	13040.20682
567.397	12624.8294
567.602	13074.64281
567.806	12699.81743
568.011	13325.78247
568.215	13143.51062
568.42	12762.63904
568.624	13040.20682
568.828	13135.40881
569.033	12926.76043
569.237	13250.85278
569.442	12981.45979
569.646	12930.81237
569.85	13406.78115
570.055	13271.10462
570.259	13092.87306
570.463	13169.84101
570.668	13412.85579
570.872	13181.99323
571.076	13271.10462
571.281	13295.40627
571.485	13325.78247
571.689	13532.31677
571.893	13453.35251
572.098	13665.93621
572.302	13696.30222
572.506	13463.47645
572.71	13449.30291
572.914	13477.64981
573.119	13576.85826
573.323	13716.54582
573.527	13473.6003
573.731	13422.98012
573.935	13566.73534
574.139	13335.90766
574.343	13416.90553
574.547	13629.49602
574.751	13649.7407
574.955	13582.93196
