Data from mixed_try6.1_USB4F045381__10__00294.txt Node

Date: Thu Apr 03 20:32:05 EDT 2025
User: mmckonesweet
Spectrometer: USB4F04538
Trigger mode: 4
Integration Time (sec): 2.700000E-3
Scans to average: 1
Electric dark correction enabled: true
Nonlinearity correction enabled: true
Boxcar width: 0
XAxis mode: Wavelengths
Number of Pixels in Spectrum: 3648
>>>>>Begin Spectral Data<<<<<
345.52	5.26851
345.736	5.26851
345.952	5.26851
346.168	-34.76838
346.384	-49.51657
346.6	-13.69743
346.816	-22.12611
347.032	-11.5902
347.248	-5.26836
347.464	41.09836
347.68	11.59093
347.896	3.16109
348.112	-36.87534
348.328	36.88273
348.544	13.69845
348.76	-38.98228
348.975	22.12877
349.191	-30.55439
349.407	-45.30293
349.623	20.02115
349.839	-28.44736
350.055	70.61035
350.27	-17.91182
350.486	-20.01897
350.702	-68.47672
350.918	38.99053
351.133	53.7458
351.349	-1.05368
351.565	11.59093
351.781	51.63784
351.996	-3.16104
352.212	24.2364
352.428	20.02115
352.644	-47.40976
352.859	-45.30293
353.075	-13.69743
353.291	-3.16104
353.506	3.16109
353.722	70.61035
353.938	-32.6614
354.153	-47.40976
354.369	-26.3403
354.584	72.71852
354.8	-60.05024
355.016	-47.40976
355.231	11.59093
355.447	-55.83685
355.662	47.42198
355.878	36.88273
356.093	-5.26836
356.309	-62.1569
356.524	-76.90279
356.74	20.02115
356.955	13.69845
357.171	-7.37567
357.386	-13.69743
357.602	-13.69743
357.817	-36.87534
358.033	41.09836
358.248	-30.55439
358.464	30.55946
358.679	-53.73012
358.895	-30.55439
359.11	30.55946
359.325	-1.05368
359.541	-47.40976
359.756	-32.6614
359.972	15.80599
360.187	-34.76838
360.402	3.16109
360.618	38.99053
360.833	-3.16104
361.048	51.63784
361.264	-74.79631
361.479	20.02115
361.694	-3.16104
361.909	-41.08919
362.125	-38.98228
362.34	-26.3403
362.555	5.26851
362.77	17.91356
362.986	-3.16104
363.201	-64.26353
363.416	28.45175
363.631	-13.69743
363.847	-60.05024
364.062	32.66719
364.277	-62.1569
364.492	-55.83685
364.707	-83.22208
364.922	26.34407
365.138	-22.12611
365.353	-20.01897
365.568	-24.23321
365.783	74.82672
365.998	-13.69743
366.213	91.69308
366.428	-26.3403
366.643	30.55946
366.858	-38.98228
367.073	5.26851
367.288	28.45175
367.503	20.02115
367.718	-7.37567
367.933	36.88273
368.148	-22.12611
368.363	-3.16104
368.578	11.59093
368.793	57.9618
369.008	-87.4348
369.223	24.2364
369.438	3.16109
369.653	-38.98228
369.868	-5.26836
370.083	47.42198
370.298	-47.40976
370.513	-26.3403
370.728	-53.73012
370.943	-22.12611
371.157	-114.81498
371.372	30.55946
371.587	49.5299
371.802	20.02115
372.017	13.69845
372.232	49.5299
372.446	-13.69743
372.661	20.02115
372.876	-36.87534
373.091	-89.54113
373.306	3.16109
373.52	79.04317
373.735	-11.5902
373.95	5.26851
374.165	32.66719
374.379	-13.69743
374.594	17.91356
374.809	-5.26836
375.023	-3.16104
375.238	-22.12611
375.453	-11.5902
375.667	53.7458
375.882	22.12877
376.097	-5.26836
376.311	13.69845
376.526	-41.08919
376.741	-30.55439
376.955	-22.12611
377.17	-20.01897
377.384	-22.12611
377.599	3.16109
377.813	-1.05368
378.028	22.12877
378.242	-26.3403
378.457	-64.26353
378.672	-87.4348
378.886	34.77495
379.101	38.99053
379.315	13.69845
379.53	20.02115
379.744	-13.69743
379.958	-36.87534
380.173	-34.76838
380.387	-76.90279
380.602	-17.91182
380.816	5.26851
381.031	-9.48295
381.245	76.93493
381.459	-11.5902
381.674	-47.40976
381.888	-3.16104
382.103	-5.26836
382.317	11.59093
382.531	-17.91182
382.746	-9.48295
382.96	-57.94356
383.174	-13.69743
383.388	-5.26836
383.603	-1.05368
383.817	-24.23321
384.031	5.26851
384.246	-22.12611
384.46	-20.01897
384.674	-28.44736
384.888	-28.44736
385.103	-28.44736
385.317	20.02115
385.531	-9.48295
385.745	3.16109
385.959	30.55946
386.174	45.31408
386.388	9.48343
386.602	-26.3403
386.816	-22.12611
387.03	20.02115
387.244	-28.44736
387.458	11.59093
387.672	-26.3403
387.887	-28.44736
388.101	20.02115
388.315	11.59093
388.529	7.37596
388.743	32.66719
388.957	-5.26836
389.171	-93.7537
389.385	-64.26353
389.599	-5.26836
389.813	-28.44736
390.027	7.37596
390.241	47.42198
390.455	-55.83685
390.669	7.37596
390.883	-62.1569
391.097	28.45175
391.311	47.42198
391.525	-30.55439
391.738	-22.12611
391.952	-1.05368
392.166	-38.98228
392.38	-13.69743
392.594	20.02115
392.808	-17.91182
393.022	22.12877
393.236	-11.5902
393.449	-22.12611
393.663	53.7458
393.877	-30.55439
394.091	-28.44736
394.305	26.34407
394.518	38.99053
394.732	-20.01897
394.946	30.55946
395.16	17.91356
395.373	-43.19607
395.587	-60.05024
395.801	-13.69743
396.015	7.37596
396.228	-17.91182
396.442	-30.55439
396.656	-15.80464
396.869	-13.69743
397.083	-5.26836
397.297	36.88273
397.51	11.59093
397.724	17.91356
397.938	87.47635
398.151	36.88273
398.365	-3.16104
398.578	-20.01897
398.792	-3.16104
399.005	11.59093
399.219	11.59093
399.433	-57.94356
399.646	45.31408
399.86	-17.91182
400.073	-9.48295
400.287	-22.12611
400.5	-17.91182
400.714	-13.69743
400.927	-11.5902
401.141	22.12877
401.354	70.61035
401.567	3.16109
401.781	17.91356
401.994	-28.44736
402.208	7.37596
402.421	3.16109
402.635	-26.3403
402.848	-15.80464
403.061	-11.5902
403.275	3.16109
403.488	-3.16104
403.701	-3.16104
403.915	-5.26836
404.128	-30.55439
404.341	-1.05368
404.555	7.37596
404.768	1.05369
404.981	-15.80464
405.195	3.16109
405.408	22.12877
405.621	-13.69743
405.834	-32.6614
406.048	36.88273
406.261	-72.68981
406.474	11.59093
406.687	-9.48295
406.9	-9.48295
407.114	-22.12611
407.327	-34.76838
407.54	7.37596
407.753	-64.26353
407.966	-22.12611
408.179	-17.91182
408.392	11.59093
408.605	28.45175
408.819	5.26851
409.032	-45.30293
409.245	7.37596
409.458	-53.73012
409.671	57.9618
409.884	-11.5902
410.097	1.05369
410.31	7.37596
410.523	3.16109
410.736	-22.12611
410.949	-5.26836
411.162	-7.37567
411.375	-26.3403
411.588	-43.19607
411.801	47.42198
412.014	22.12877
412.227	24.2364
412.44	15.80599
412.653	-41.08919
412.865	55.85379
413.078	-17.91182
413.291	5.26851
413.504	-51.62336
413.717	-11.5902
413.93	-22.12611
414.143	-28.44736
414.356	-60.05024
414.568	22.12877
414.781	-47.40976
414.994	13.69845
415.207	60.06984
415.42	-26.3403
415.632	-20.01897
415.845	-100.07236
416.058	13.69845
416.271	45.31408
416.483	3.16109
416.696	28.45175
416.909	17.91356
417.121	41.09836
417.334	-13.69743
417.547	38.99053
417.759	-89.54113
417.972	-28.44736
418.185	34.77495
418.397	49.5299
418.61	-22.12611
418.823	3.16109
419.035	-22.12611
419.248	-47.40976
419.46	1.05369
419.673	9.48343
419.885	3.16109
420.098	-43.19607
420.311	-20.01897
420.523	15.80599
420.736	36.88273
420.948	-38.98228
421.161	-47.40976
421.373	-34.76838
421.586	7.37596
421.798	34.77495
422.01	-60.05024
422.223	-26.3403
422.435	-9.48295
422.648	-51.62336
422.86	-3.16104
423.073	5.26851
423.285	-64.26353
423.497	72.71852
423.71	3.16109
423.922	3.16109
424.134	-22.12611
424.347	13.69845
424.559	3.16109
424.771	20.02115
424.984	15.80599
425.196	28.45175
425.408	-3.16104
425.621	13.69845
425.833	-13.69743
426.045	74.82672
426.257	7.37596
426.47	-3.16104
426.682	-1.05368
426.894	-3.16104
427.106	-26.3403
427.318	20.02115
427.531	22.12877
427.743	11.59093
427.955	57.9618
428.167	62.17789
428.379	9.48343
428.591	7.37596
428.804	-22.12611
429.016	-22.12611
429.228	-5.26836
429.44	24.2364
429.652	26.34407
429.864	-17.91182
430.076	-28.44736
430.288	-85.32845
430.5	-20.01897
430.712	30.55946
430.924	45.31408
431.136	-24.23321
431.348	-49.51657
431.56	3.16109
431.772	-89.54113
431.984	17.91356
432.196	-1.05368
432.408	-72.68981
432.62	-11.5902
432.832	-13.69743
433.044	36.88273
433.256	11.59093
433.468	-5.26836
433.679	-72.68981
433.891	3.16109
434.103	-30.55439
434.315	53.7458
434.527	-22.12611
434.739	-13.69743
434.95	-13.69743
435.162	-30.55439
435.374	11.59093
435.586	66.39408
435.798	-1.05368
436.009	57.9618
436.221	28.45175
436.433	-15.80464
436.645	-5.26836
436.856	-47.40976
437.068	28.45175
437.28	3.16109
437.491	9.48343
437.703	-28.44736
437.915	74.82672
438.126	3.16109
438.338	-38.98228
438.55	-34.76838
438.761	20.02115
438.973	-30.55439
439.184	81.15143
439.396	26.34407
439.608	13.69845
439.819	-49.51657
440.031	-20.01897
440.242	-30.55439
440.454	-47.40976
440.665	15.80599
440.877	-20.01897
441.088	-9.48295
441.3	3.16109
441.511	28.45175
441.723	-43.19607
441.934	34.77495
442.146	-22.12611
442.357	-60.05024
442.569	-45.30293
442.78	-64.26353
442.991	41.09836
443.203	15.80599
443.414	-38.98228
443.626	51.63784
443.837	13.69845
444.048	-38.98228
444.26	53.7458
444.471	3.16109
444.682	41.09836
444.894	41.09836
445.105	-13.69743
445.316	-64.26353
445.528	-20.01897
445.739	38.99053
445.95	24.2364
446.161	-7.37567
446.373	3.16109
446.584	-60.05024
446.795	-60.05024
447.006	30.55946
447.217	28.45175
447.429	-43.19607
447.64	-5.26836
447.851	-22.12611
448.062	-76.90279
448.273	-9.48295
448.484	-5.26836
448.695	-9.48295
448.907	-24.23321
449.118	91.69308
449.329	-38.98228
449.54	49.5299
449.751	26.34407
449.962	-60.05024
450.173	41.09836
450.384	-26.3403
450.595	38.99053
450.806	11.59093
451.017	-30.55439
451.228	24.2364
451.439	34.77495
451.65	-64.26353
451.861	28.45175
452.072	-5.26836
452.283	32.66719
452.494	13.69845
452.705	32.66719
452.915	104.34378
453.126	72.71852
453.337	-51.62336
453.548	30.55946
453.759	-13.69743
453.97	28.45175
454.181	-74.79631
454.391	-36.87534
454.602	95.90989
454.813	5.26851
455.024	34.77495
455.235	7.37596
455.445	-17.91182
455.656	20.02115
455.867	49.5299
456.078	-60.05024
456.288	-45.30293
456.499	-30.55439
456.71	11.59093
456.921	62.17789
457.131	38.99053
457.342	-11.5902
457.553	41.09836
457.763	-64.26353
457.974	-20.01897
458.184	-45.30293
458.395	-26.3403
458.606	5.26851
458.816	-20.01897
459.027	30.55946
459.237	-5.26836
459.448	24.2364
459.659	-20.01897
459.869	-85.32845
460.08	11.59093
460.29	45.31408
460.501	-93.7537
460.711	-5.26836
460.922	3.16109
461.132	36.88273
461.343	38.99053
461.553	-22.12611
461.764	24.2364
461.974	-13.69743
462.184	11.59093
462.395	-38.98228
462.605	-36.87534
462.816	15.80599
463.026	38.99053
463.236	-26.3403
463.447	-24.23321
463.657	-22.12611
463.867	-26.3403
464.078	55.85379
464.288	-3.16104
464.498	45.31408
464.709	-3.16104
464.919	95.90989
465.129	-20.01897
465.339	-51.62336
465.55	-24.23321
465.76	79.04317
465.97	47.42198
466.18	79.04317
466.391	-13.69743
466.601	-5.26836
466.811	22.12877
467.021	-13.69743
467.231	7.37596
467.441	-45.30293
467.651	79.04317
467.862	-22.12611
468.072	-7.37567
468.282	-72.68981
468.492	-9.48295
468.702	-13.69743
468.912	53.7458
469.122	-13.69743
469.332	-13.69743
469.542	-22.12611
469.752	-26.3403
469.962	47.42198
470.172	-3.16104
470.382	-11.5902
470.592	5.26851
470.802	45.31408
471.012	5.26851
471.222	-22.12611
471.432	-13.69743
471.642	-55.83685
471.852	-5.26836
472.062	5.26851
472.272	-51.62336
472.482	11.59093
472.691	-17.91182
472.901	45.31408
473.111	24.2364
473.321	62.17789
473.531	-13.69743
473.741	-1.05368
473.95	36.88273
474.16	15.80599
474.37	20.02115
474.58	15.80599
474.79	20.02115
474.999	28.45175
475.209	53.7458
475.419	32.66719
475.628	-30.55439
475.838	22.12877
476.048	45.31408
476.258	-15.80464
476.467	-20.01897
476.677	20.02115
476.886	98.01833
477.096	-28.44736
477.306	62.17789
477.515	5.26851
477.725	-47.40976
477.935	15.80599
478.144	-85.32845
478.354	-20.01897
478.563	30.55946
478.773	-72.68981
478.982	28.45175
479.192	13.69845
479.401	-38.98228
479.611	30.55946
479.82	-3.16104
480.03	22.12877
480.239	41.09836
480.449	-13.69743
480.658	15.80599
480.868	-15.80464
481.077	-36.87534
481.287	43.20621
481.496	72.71852
481.705	-43.19607
481.915	20.02115
482.124	-24.23321
482.333	47.42198
482.543	87.47635
482.752	-36.87534
482.961	-49.51657
483.171	17.91356
483.38	-51.62336
483.589	53.7458
483.799	-36.87534
484.008	7.37596
484.217	62.17789
484.426	55.85379
484.636	81.15143
484.845	22.12877
485.054	79.04317
485.263	47.42198
485.472	22.12877
485.682	36.88273
485.891	53.7458
486.1	-38.98228
486.309	24.2364
486.518	64.28597
486.727	-20.01897
486.936	-26.3403
487.146	43.20621
487.355	-11.5902
487.564	26.34407
487.773	34.77495
487.982	7.37596
488.191	45.31408
488.4	36.88273
488.609	60.06984
488.818	-28.44736
489.027	-1.05368
489.236	55.85379
489.445	74.82672
489.654	7.37596
489.863	28.45175
490.072	3.16109
490.281	62.17789
490.49	11.59093
490.698	-5.26836
490.907	-13.69743
491.116	24.2364
491.325	7.37596
491.534	30.55946
491.743	3.16109
491.952	89.5847
492.16	57.9618
492.369	-43.19607
492.578	-5.26836
492.787	15.80599
492.996	17.91356
493.204	9.48343
493.413	28.45175
493.622	13.69845
493.831	30.55946
494.039	26.34407
494.248	-30.55439
494.457	13.69845
494.665	66.39408
494.874	32.66719
495.083	36.88273
495.291	43.20621
495.5	38.99053
495.709	-5.26836
495.917	15.80599
496.126	-5.26836
496.335	36.88273
496.543	7.37596
496.752	15.80599
496.96	24.2364
497.169	5.26851
497.377	13.69845
497.586	20.02115
497.794	-1.05368
498.003	41.09836
498.211	62.17789
498.42	53.7458
498.628	30.55946
498.837	98.01833
499.045	-22.12611
499.254	45.31408
499.462	30.55946
499.671	28.45175
499.879	11.59093
500.087	91.69308
500.296	20.02115
500.504	95.90989
500.713	64.28597
500.921	55.85379
501.129	74.82672
501.338	-30.55439
501.546	108.56086
501.754	45.31408
501.962	41.09836
502.171	68.5022
502.379	62.17789
502.587	62.17789
502.795	20.02115
503.004	17.91356
503.212	66.39408
503.42	28.45175
503.628	30.55946
503.837	-26.3403
504.045	87.47635
504.253	-32.6614
504.461	-3.16104
504.669	41.09836
504.877	81.15143
505.085	57.9618
505.294	70.61035
505.502	7.37596
505.71	51.63784
505.918	106.45231
506.126	13.69845
506.334	57.9618
506.542	-13.69743
506.75	-24.23321
506.958	41.09836
507.166	32.66719
507.374	3.16109
507.582	112.77803
507.79	11.59093
507.998	133.86516
508.206	-11.5902
508.414	15.80599
508.622	72.71852
508.83	5.26851
509.037	41.09836
509.245	20.02115
509.453	36.88273
509.661	45.31408
509.869	76.93493
510.077	60.06984
510.285	24.2364
510.492	76.93493
510.7	70.61035
510.908	49.5299
511.116	64.28597
511.324	7.37596
511.531	91.69308
511.739	45.31408
511.947	66.39408
512.155	28.45175
512.362	125.43005
512.57	98.01833
512.778	66.39408
512.985	-17.91182
513.193	100.12679
513.401	79.04317
513.608	121.21262
513.816	22.12877
514.024	66.39408
514.231	53.7458
514.439	95.90989
514.646	104.34378
514.854	144.40954
515.061	38.99053
515.269	68.5022
515.477	70.61035
515.684	38.99053
515.892	62.17789
516.099	119.10394
516.307	125.43005
516.514	70.61035
516.722	112.77803
516.929	62.17789
517.136	114.88664
517.344	148.62743
517.551	81.15143
517.759	64.28597
517.966	60.06984
518.173	138.08285
518.381	121.21262
518.588	32.66719
518.796	20.02115
519.003	62.17789
519.21	28.45175
519.418	57.9618
519.625	62.17789
519.832	131.75635
520.039	95.90989
520.247	131.75635
520.454	17.91356
520.661	93.80147
520.868	100.12679
521.076	108.56086
521.283	146.51847
521.49	62.17789
521.697	123.32132
521.904	36.88273
522.112	131.75635
522.319	104.34378
522.526	129.64756
522.733	95.90989
522.94	66.39408
523.147	138.08285
523.354	98.01833
523.561	98.01833
523.768	112.77803
523.975	146.51847
524.183	95.90989
524.39	108.56086
524.597	100.12679
524.804	112.77803
525.011	87.47635
525.218	87.47635
525.425	70.61035
525.632	30.55946
525.838	165.49987
526.045	148.62743
526.252	47.42198
526.459	87.47635
526.666	112.77803
526.873	104.34378
527.08	108.56086
527.287	182.37364
527.494	154.95444
527.701	64.28597
527.907	121.21262
528.114	131.75635
528.321	70.61035
528.528	157.06349
528.735	89.5847
528.941	142.30062
529.148	148.62743
529.355	95.90989
529.562	108.56086
529.768	165.49987
529.975	165.49987
530.182	167.60902
530.388	83.25972
530.595	79.04317
530.802	104.34378
531.008	95.90989
531.215	95.90989
531.422	165.49987
531.628	188.70164
531.835	131.75635
532.042	163.39074
532.248	182.37364
532.455	167.60902
532.661	188.70164
532.868	157.06349
533.074	201.3582
533.281	169.71819
533.487	123.32132
533.694	131.75635
533.9	140.19172
534.107	167.60902
534.313	123.32132
534.52	171.82738
534.726	131.75635
534.933	154.95444
535.139	192.92041
535.345	186.59229
535.552	180.26435
535.758	154.95444
535.965	121.21262
536.171	192.92041
536.377	140.19172
536.584	249.88161
536.79	110.66943
536.996	180.26435
537.203	138.08285
537.409	116.99528
537.615	129.64756
537.821	197.13926
538.028	133.86516
538.234	224.56375
538.44	222.45405
538.646	173.93659
538.853	188.70164
539.059	207.68674
539.265	95.90989
539.471	182.37364
539.677	207.68674
539.883	184.48295
540.09	218.23472
540.296	214.01547
540.502	241.44201
540.708	199.24872
540.914	188.70164
541.12	211.90588
541.326	167.60902
541.532	180.26435
541.738	163.39074
541.944	138.08285
542.15	254.10153
542.356	207.68674
542.562	292.08415
542.768	220.34438
542.974	247.77168
543.18	245.66178
543.386	281.53282
543.592	197.13926
543.798	260.43154
544.004	247.77168
544.21	346.9584
544.415	199.24872
544.621	302.63595
544.827	188.70164
545.033	157.06349
545.239	251.99156
545.445	283.64305
545.651	188.70164
545.856	260.43154
546.062	340.62615
546.268	289.97385
546.474	285.7533
546.679	283.64305
546.885	298.41518
547.091	300.52556
547.297	224.56375
547.502	327.96211
547.708	296.30482
547.914	287.86356
548.119	239.33216
548.325	300.52556
548.531	235.11252
548.736	285.7533
548.942	304.74637
549.147	374.39997
549.353	254.10153
549.559	357.51251
549.764	340.62615
549.97	319.51977
550.175	319.51977
550.381	370.17801
550.586	334.29405
550.792	370.17801
550.997	340.62615
551.203	319.51977
551.408	285.7533
551.614	298.41518
551.819	323.7409
552.025	391.28851
552.23	304.74637
552.435	334.29405
552.641	376.51098
552.846	281.53282
553.052	332.18339
553.257	357.51251
553.462	306.8568
553.668	387.06628
553.873	450.40661
554.078	441.9604
554.283	439.84889
554.489	492.64129
554.694	408.17811
554.899	382.84411
555.105	361.73427
555.31	298.41518
555.515	469.41147
555.72	435.62591
555.925	452.5182
556.131	422.95736
556.336	321.63033
556.541	412.40067
556.746	431.403
556.951	403.95561
557.156	467.29976
557.361	526.43329
557.567	357.51251
557.772	420.84599
557.977	448.29503
558.182	469.41147
558.387	507.42484
558.592	420.84599
558.797	450.40661
559.002	501.08894
559.207	511.64884
559.412	570.79075
559.617	496.86509
559.822	513.76086
560.027	467.29976
560.232	562.34125
560.437	566.56597
560.642	543.33065
560.847	492.64129
561.051	564.4536
561.256	490.52941
561.461	492.64129
561.666	422.95736
561.871	520.09701
562.076	545.44289
562.281	587.69039
562.485	408.17811
562.69	613.04142
562.895	475.74669
563.1	591.91544
563.305	532.7697
563.509	606.70349
563.714	425.06875
563.919	644.73275
564.123	520.09701
564.328	545.44289
564.533	494.75318
564.737	530.65755
564.942	501.08894
565.147	670.08778
565.351	610.92877
565.556	587.69039
565.761	636.28146
565.965	619.37947
566.17	568.67835
566.374	686.99207
566.579	479.97025
566.784	568.67835
566.988	670.08778
567.193	577.12802
567.397	579.24047
567.602	570.79075
567.806	570.79075
568.011	653.18424
568.215	644.73275
568.42	676.4268
568.624	754.61631
568.828	739.82257
569.033	594.02798
569.237	737.70922
569.442	566.56597
569.646	661.63592
569.85	706.01026
570.055	665.86183
570.259	670.08778
570.463	771.52405
570.668	589.80291
570.872	729.25593
571.076	648.95847
571.281	718.68955
571.485	621.49217
571.689	796.88685
571.893	722.91607
572.098	826.47853
572.302	712.34986
572.506	771.52405
572.71	703.89708
572.914	779.97816
573.119	720.80281
573.323	763.0701
573.527	788.43243
573.731	822.25103
573.935	653.18424
574.139	807.4551
574.343	712.34986
574.547	746.16268
574.751	686.99207
574.955	820.1373
575.159	832.81983
575.364	748.27607
575.568	892.00914
575.772	847.61653
575.976	767.29705
576.18	883.55312
576.383	807.4551
576.587	773.63756
576.791	756.72974
576.995	866.64148
577.199	864.52756
577.403	813.79616
577.607	881.43914
577.811	832.81983
578.015	824.36477
578.219	875.09723
578.422	883.55312
578.626	902.57934
578.83	822.25103
579.034	919.49208
579.238	879.32516
579.442	919.49208
579.645	953.31898
579.849	906.80748
580.053	989.26206
580.257	913.14974
580.46	957.54748
580.664	999.83392
580.868	809.56877
581.071	1014.63479
581.275	796.88685
581.479	1001.94831
581.682	915.26385
581.886	906.80748
582.09	940.63367
582.293	966.00455
582.497	1016.74922
582.7	1018.86366
582.904	923.72034
583.107	1088.64343
583.311	1219.75881
583.515	1025.20702
583.718	968.11884
