Data from mixed_try6.1_USB4F045381__36__00320.txt Node

Date: Thu Apr 03 20:34:46 EDT 2025
User: mmckonesweet
Spectrometer: USB4F04538
Trigger mode: 4
Integration Time (sec): 2.700000E-3
Scans to average: 1
Electric dark correction enabled: true
Nonlinearity correction enabled: true
Boxcar width: 0
XAxis mode: Wavelengths
Number of Pixels in Spectrum: 3648
>>>>>Begin Spectral Data<<<<<
345.52	-68.82782
345.736	-68.82782
345.952	-68.82782
346.168	-73.04089
346.384	-75.1474
346.6	-66.72124
346.816	-5.61958
347.032	-37.2265
347.248	17.5623
347.464	13.34719
347.68	-3.51226
347.896	38.63923
348.112	-62.50801
348.328	7.02472
348.544	42.8549
348.76	25.99279
348.975	30.20817
349.191	-24.5844
349.407	47.07066
349.623	-18.26301
349.839	51.28651
350.055	63.93463
350.27	7.02472
350.486	-9.83416
350.702	-3.51226
350.918	99.77538
351.133	-20.37016
351.349	40.74705
351.565	-45.65407
351.781	4.91728
351.996	61.82655
352.212	-9.83416
352.428	23.88513
352.644	63.93463
352.859	2.80986
353.075	-51.97449
353.291	-33.01256
353.506	15.45473
353.722	-9.83416
353.938	30.20817
354.153	7.02472
354.369	-11.94141
354.584	-37.2265
354.8	0.70246
355.016	-26.69148
355.231	-16.15583
355.447	-7.72688
355.662	72.36716
355.878	59.7185
356.093	-35.11954
356.309	42.8549
356.524	53.39447
356.74	23.88513
356.955	-16.15583
357.171	4.91728
357.386	-54.08124
357.602	-1.40491
357.817	-45.65407
358.033	9.13219
358.248	-20.37016
358.464	17.5623
358.679	-18.26301
358.895	-11.94141
359.11	7.02472
359.325	-3.51226
359.541	-7.72688
359.756	-20.37016
359.972	59.7185
360.187	13.34719
360.402	-9.83416
360.618	-26.69148
360.833	4.91728
361.048	0.70246
361.264	-18.26301
361.479	21.7775
361.694	-9.83416
361.909	-20.37016
362.125	30.20817
362.34	30.20817
362.555	-18.26301
362.77	0.70246
362.986	-49.86771
363.201	47.07066
363.416	30.20817
363.631	4.91728
363.847	15.45473
364.062	-1.40491
364.277	15.45473
364.492	15.45473
364.707	-20.37016
364.922	-18.26301
365.138	-1.40491
365.353	66.04272
365.568	-3.51226
365.783	49.17857
365.998	9.13219
366.213	74.47535
366.428	7.02472
366.643	34.42366
366.858	38.63923
367.073	-45.65407
367.288	-9.83416
367.503	7.02472
367.718	51.28651
367.933	47.07066
368.148	82.90833
368.363	-11.94141
368.578	21.7775
368.793	72.36716
369.008	4.91728
369.223	-33.01256
369.438	-1.40491
369.653	-1.40491
369.868	7.02472
370.083	-45.65407
370.298	-11.94141
370.513	-75.1474
370.728	4.91728
370.943	40.74705
371.157	68.15085
371.372	-5.61958
371.587	-16.15583
371.802	-33.01256
372.017	-9.83416
372.232	-3.51226
372.446	30.20817
372.661	36.53143
372.876	-33.01256
373.091	32.3159
373.306	-7.72688
373.52	74.47535
373.735	-28.79853
373.95	7.02472
374.165	-35.11954
374.379	23.88513
374.594	-24.5844
374.809	-37.2265
375.023	-18.26301
375.238	-37.2265
375.453	-58.29468
375.667	93.45007
375.882	-18.26301
376.097	0.70246
376.311	7.02472
376.526	4.91728
376.741	59.7185
376.955	85.01664
377.17	0.70246
377.384	2.80986
377.599	-18.26301
377.813	-28.79853
378.028	-28.79853
378.242	17.5623
378.457	-5.61958
378.672	-7.72688
378.886	25.99279
379.101	11.23968
379.315	13.34719
379.53	40.74705
379.744	118.75249
379.958	63.93463
380.173	21.7775
380.387	34.42366
380.602	-20.37016
380.816	-41.44034
381.031	9.13219
381.245	74.47535
381.459	13.34719
381.674	30.20817
381.888	30.20817
382.103	-1.40491
382.317	7.02472
382.531	47.07066
382.746	34.42366
382.96	-11.94141
383.174	21.7775
383.388	-18.26301
383.603	-7.72688
383.817	97.66692
384.031	-16.15583
384.246	21.7775
384.46	13.34719
384.674	40.74705
384.888	4.91728
385.103	-26.69148
385.317	-9.83416
385.531	34.42366
385.745	30.20817
385.959	-7.72688
386.174	34.42366
386.388	11.23968
386.602	34.42366
386.816	55.50246
387.03	-54.08124
387.244	-28.79853
387.458	59.7185
387.672	-11.94141
387.887	-35.11954
388.101	-62.50801
388.315	-43.54722
388.529	66.04272
388.743	23.88513
388.957	21.7775
389.171	-16.15583
389.385	-3.51226
389.599	25.99279
389.813	25.99279
390.027	40.74705
390.241	-14.04863
390.455	-54.08124
390.669	-1.40491
390.883	-7.72688
391.097	-28.79853
391.311	-45.65407
391.525	-9.83416
391.738	34.42366
391.952	51.28651
392.166	23.88513
392.38	55.50246
392.594	13.34719
392.808	13.34719
393.022	-35.11954
393.236	-37.2265
393.449	-3.51226
393.663	25.99279
393.877	-87.78586
394.091	47.07066
394.305	11.23968
394.518	4.91728
394.732	-58.29468
394.946	36.53143
395.16	-3.51226
395.373	42.8549
395.587	-28.79853
395.801	-28.79853
396.015	74.47535
396.228	34.42366
396.442	-26.69148
396.656	36.53143
396.869	-3.51226
397.083	21.7775
397.297	-7.72688
397.51	38.63923
397.724	-37.2265
397.938	30.20817
398.151	-70.93437
398.365	-49.86771
398.578	21.7775
398.792	23.88513
399.005	4.91728
399.219	32.3159
399.433	-11.94141
399.646	4.91728
399.86	4.91728
400.073	25.99279
400.287	51.28651
400.5	30.20817
400.714	-39.33343
400.927	-11.94141
401.141	-9.83416
401.354	13.34719
401.567	49.17857
401.781	-66.72124
401.994	38.63923
402.208	-37.2265
402.421	-11.94141
402.635	7.02472
402.848	89.23331
403.061	38.63923
403.275	-3.51226
403.488	-33.01256
403.701	-1.40491
403.915	74.47535
404.128	-30.90556
404.341	-9.83416
404.555	9.13219
404.768	40.74705
404.981	11.23968
405.195	122.96987
405.408	55.50246
405.621	21.7775
405.834	-7.72688
406.048	40.74705
406.261	-37.2265
406.474	82.90833
406.687	116.64384
406.9	32.3159
407.114	25.99279
407.327	-9.83416
407.54	23.88513
407.753	59.7185
407.966	21.7775
408.179	42.8549
408.392	36.53143
408.605	15.45473
408.819	61.82655
409.032	38.63923
409.245	11.23968
409.458	-3.51226
409.671	-20.37016
409.884	9.13219
410.097	57.61047
410.31	7.02472
410.523	-49.86771
410.736	47.07066
410.949	-7.72688
411.162	15.45473
411.375	55.50246
411.588	9.13219
411.801	21.7775
412.014	59.7185
412.227	-3.51226
412.44	15.45473
412.653	-24.5844
412.865	30.20817
413.078	32.3159
413.291	0.70246
413.504	-77.25387
413.717	-68.82782
413.93	15.45473
414.143	51.28651
414.356	21.7775
414.568	66.04272
414.781	7.02472
414.994	72.36716
415.207	13.34719
415.42	17.5623
415.632	-3.51226
415.845	-33.01256
416.058	-26.69148
416.271	59.7185
416.483	-1.40491
416.696	49.17857
416.909	-60.40135
417.121	-70.93437
417.334	59.7185
417.547	-54.08124
417.759	61.82655
417.972	-60.40135
418.185	4.91728
418.397	4.91728
418.61	7.02472
418.823	63.93463
419.035	19.66988
419.248	51.28651
419.46	21.7775
419.673	-11.94141
419.885	32.3159
420.098	-24.5844
420.311	13.34719
420.523	-37.2265
420.736	-28.79853
420.948	-9.83416
421.161	19.66988
421.373	13.34719
421.586	-45.65407
421.798	4.91728
422.01	40.74705
422.223	38.63923
422.435	9.13219
422.648	40.74705
422.86	-51.97449
423.073	-3.51226
423.285	-3.51226
423.497	36.53143
423.71	47.07066
423.922	-35.11954
424.134	63.93463
424.347	-5.61958
424.559	97.66692
424.771	38.63923
424.984	-14.04863
425.196	-1.40491
425.408	38.63923
425.621	34.42366
425.833	49.17857
426.045	-11.94141
426.257	21.7775
426.47	47.07066
426.682	-28.79853
426.894	49.17857
427.106	-1.40491
427.318	55.50246
427.531	40.74705
427.743	-11.94141
427.955	9.13219
428.167	-26.69148
428.379	99.77538
428.591	-37.2265
428.804	66.04272
429.016	32.3159
429.228	13.34719
429.44	66.04272
429.652	28.10047
429.864	-1.40491
430.076	32.3159
430.288	47.07066
430.5	21.7775
430.712	-35.11954
430.924	-47.7609
431.136	0.70246
431.348	4.91728
431.56	57.61047
431.772	38.63923
431.984	4.91728
432.196	-51.97449
432.408	66.04272
432.62	40.74705
432.832	38.63923
433.044	28.10047
433.256	32.3159
433.468	85.01664
433.679	7.02472
433.891	4.91728
434.103	34.42366
434.315	25.99279
434.527	74.47535
434.739	63.93463
434.95	32.3159
435.162	15.45473
435.374	38.63923
435.586	25.99279
435.798	32.3159
436.009	38.63923
436.221	-16.15583
436.433	38.63923
436.645	57.61047
436.856	4.91728
437.068	66.04272
437.28	-54.08124
437.491	-11.94141
437.703	66.04272
437.915	63.93463
438.126	-33.01256
438.338	21.7775
438.55	38.63923
438.761	-11.94141
438.973	40.74705
439.184	7.02472
439.396	15.45473
439.608	30.20817
439.819	28.10047
440.031	-11.94141
440.242	47.07066
440.454	9.13219
440.665	-24.5844
440.877	51.28651
441.088	-43.54722
441.3	49.17857
441.511	25.99279
441.723	34.42366
441.934	17.5623
442.146	-28.79853
442.357	82.90833
442.569	55.50246
442.78	30.20817
442.991	7.02472
443.203	21.7775
443.414	30.20817
443.626	-20.37016
443.837	30.20817
444.048	9.13219
444.26	74.47535
444.471	114.5352
444.682	-9.83416
444.894	55.50246
445.105	106.10089
445.316	30.20817
445.528	32.3159
445.739	2.80986
445.95	59.7185
446.161	108.20943
446.373	23.88513
446.584	57.61047
446.795	19.66988
447.006	-9.83416
447.217	40.74705
447.429	-3.51226
447.64	47.07066
447.851	-60.40135
448.062	72.36716
448.273	36.53143
448.484	49.17857
448.695	49.17857
448.907	97.66692
449.118	21.7775
449.329	40.74705
449.54	72.36716
449.751	66.04272
449.962	51.28651
450.173	-30.90556
450.384	-7.72688
450.595	-3.51226
450.806	116.64384
451.017	-11.94141
451.228	23.88513
451.439	89.23331
451.65	49.17857
451.861	47.07066
452.072	21.7775
452.283	9.13219
452.494	30.20817
452.705	23.88513
452.915	25.99279
453.126	47.07066
453.337	-28.79853
453.548	34.42366
453.759	114.5352
453.97	4.91728
454.181	97.66692
454.391	25.99279
454.602	-66.72124
454.813	47.07066
455.024	66.04272
455.235	49.17857
455.445	-79.36032
455.656	34.42366
455.867	-11.94141
456.078	-11.94141
456.288	-26.69148
456.499	74.47535
456.71	89.23331
456.921	91.34168
457.131	80.80005
457.342	80.80005
457.553	49.17857
457.763	-30.90556
457.974	21.7775
458.184	21.7775
458.395	17.5623
458.606	13.34719
458.816	34.42366
459.027	-1.40491
459.237	47.07066
459.448	34.42366
459.659	133.51369
459.869	42.8549
460.08	72.36716
460.29	55.50246
460.501	30.20817
460.711	72.36716
460.922	40.74705
461.132	19.66988
461.343	114.5352
461.553	55.50246
461.764	82.90833
461.974	53.39447
462.184	30.20817
462.395	-5.61958
462.605	114.5352
462.816	11.23968
463.026	-3.51226
463.236	42.8549
463.447	25.99279
463.657	53.39447
463.867	15.45473
464.078	25.99279
464.288	72.36716
464.498	89.23331
464.709	80.80005
464.919	89.23331
465.129	49.17857
465.339	53.39447
465.55	139.84024
465.76	47.07066
465.97	38.63923
466.18	74.47535
466.391	74.47535
466.601	99.77538
466.811	15.45473
467.021	59.7185
467.231	30.20817
467.441	91.34168
467.651	21.7775
467.862	89.23331
468.072	101.88386
468.282	144.05805
468.492	173.58505
468.702	78.6918
468.912	89.23331
469.122	194.67826
469.332	116.64384
469.542	131.40488
469.752	125.07859
469.962	148.27594
470.172	82.90833
470.382	118.75249
470.592	72.36716
470.802	188.35008
471.012	133.51369
471.222	76.58356
471.432	122.96987
471.642	85.01664
471.852	114.5352
472.062	215.77348
472.272	106.10089
472.482	137.73137
472.691	133.51369
472.901	80.80005
473.111	118.75249
473.321	169.36666
473.531	203.11611
473.741	154.60294
473.95	158.82104
474.16	158.82104
474.37	156.71198
474.58	217.88312
474.79	133.51369
474.999	257.96985
475.209	190.45945
475.419	188.35008
475.628	196.78769
475.838	234.76089
476.048	175.69428
476.258	177.80353
476.467	226.32184
476.677	243.20024
476.886	241.09037
477.096	266.41005
477.306	163.03922
477.515	268.52014
477.725	272.74039
477.935	268.52014
478.144	369.82618
478.354	285.40159
478.563	361.38246
478.773	283.29134
478.982	346.60661
479.192	333.94227
479.401	308.61551
479.611	371.93715
479.82	462.72443
480.03	403.60374
480.239	395.15895
480.449	384.60334
480.658	365.60428
480.868	386.71443
481.077	496.5131
481.287	365.60428
481.496	511.29683
481.705	485.95373
481.915	473.28298
482.124	532.41767
482.333	549.31535
482.543	542.97862
482.752	646.49347
482.961	570.43868
483.171	701.43172
483.38	633.81654
483.589	663.39671
483.799	515.52089
484.008	714.11087
484.217	629.59099
484.426	682.41375
484.636	589.45082
484.845	726.79042
485.054	809.21649
485.263	866.28916
485.472	692.97918
485.682	794.42096
485.891	714.11087
486.1	781.73945
486.309	851.49193
486.518	910.6833
486.727	940.28131
486.936	1111.55219
487.146	891.6568
487.355	1045.99952
487.564	1071.37415
487.773	1086.17637
487.982	1026.96908
488.191	1196.14284
488.4	1103.0935
488.609	1145.38765
488.818	1145.38765
489.027	1204.60224
489.236	1221.52121
489.445	1232.09567
489.654	1069.25957
489.863	1276.50916
490.072	1145.38765
490.281	1272.27926
490.49	1255.35973
490.698	1356.8789
490.907	1297.65883
491.116	1566.26795
491.325	1365.339
491.534	1509.16216
491.743	1304.00377
491.952	1483.7816
492.16	1327.2687
492.369	1619.14275
492.578	1483.7816
492.787	1707.96925
492.996	1466.86119
493.204	1485.89665
493.413	1610.68286
493.622	1597.99297
493.831	1691.05029
494.039	1686.82052
494.248	1794.67544
494.457	1771.41342
494.665	1746.03614
494.874	1900.40499
495.083	1796.79014
495.291	1923.66379
495.5	1856.00005
495.709	1908.86281
495.917	1906.74836
496.126	2058.97318
496.335	2008.23524
496.543	2092.79622
496.752	2122.38982
496.96	2151.9819
497.169	2027.26243
497.377	2156.20921
497.586	2141.41348
497.794	2120.27604
498.003	2151.9819
498.211	2295.69141
498.42	2067.42911
498.628	2295.69141
498.837	2342.17663
499.045	2333.72512
499.254	2130.84485
499.462	2280.89969
499.671	2420.34543
499.879	2388.65707
500.087	2337.9509
500.296	2523.84382
500.504	2504.83592
500.713	2504.83592
500.921	2458.36832
501.129	2570.30363
501.338	2405.55782
501.546	2604.08899
501.754	2456.25603
501.962	2654.76115
502.171	2525.95575
502.379	2772.9676
502.587	2597.75447
502.795	2739.19853
503.004	2610.4234
503.212	2722.31272
503.42	2848.93526
503.628	2840.4953
503.837	2889.02199
504.045	2819.39441
504.253	2933.32232
504.461	2897.46064
504.669	2897.46064
504.877	3019.79463
505.085	2952.3062
505.294	3123.10576
505.502	2836.27523
505.71	3234.80719
505.918	3026.12088
506.126	3072.50909
506.334	2867.92435
506.542	3285.37365
506.75	3093.59215
506.958	3302.22697
507.166	3207.41299
507.374	3245.34267
507.582	3169.47796
507.79	3350.67415
507.998	3232.70004
508.206	3401.21793
508.414	3257.98469
508.622	3375.9473
508.83	3272.73295
509.037	3375.9473
509.245	3249.55674
509.453	3380.15925
509.661	3287.48038
509.869	3561.20532
510.077	3375.9473
510.285	3527.53249
510.492	3449.64616
510.7	3546.47403
510.908	3502.27478
511.116	3588.561
511.324	3554.89202
511.531	3872.44873
511.739	3641.1592
511.947	3502.27478
512.155	3514.90397
512.362	3824.10776
512.57	3657.98813
512.778	3653.78101
512.985	3706.36452
513.193	3773.65386
513.401	3695.84878
513.608	3927.08232
513.816	3838.82134
514.024	3769.44886
514.231	3723.18872
514.439	3849.33044
514.646	3805.18887
514.854	3914.47577
515.061	3662.19517
515.269	4006.90683
515.477	3830.4137
515.684	4002.70627
515.892	3779.96122
516.099	3998.50563
516.307	3979.60175
516.514	4036.30842
516.722	4218.92691
516.929	4124.48886
517.136	4143.37988
517.344	4111.8939
517.551	3948.09161
517.759	4200.04272
517.966	4250.39673
518.173	4107.69541
518.381	4149.67651
518.588	4141.28096
518.796	4235.71141
519.003	4359.45477
519.21	4137.08306
519.418	4208.43591
519.625	4403.48086
519.832	4434.92219
520.039	4460.0717
520.247	4392.99933
520.454	4437.0181
520.661	4468.45417
520.868	4579.48854
521.076	4746.9689
521.283	4711.39137
521.49	4744.87628
521.697	4621.37208
521.904	4828.5632
522.112	4554.35413
522.319	4744.87628
522.526	4596.24303
522.733	4803.46094
522.94	4675.80731
523.147	4742.78365
523.354	4866.21043
523.561	4891.30447
523.768	4728.13455
523.975	4845.29621
524.183	4627.65384
524.39	4922.66739
524.597	4983.2877
524.804	4956.11547
525.011	4920.57669
525.218	4870.393
525.425	4828.5632
525.632	4918.48596
525.838	5008.36631
526.045	5160.85605
526.252	4872.48425
526.459	5106.5588
526.666	4895.48649
526.873	5108.64745
527.08	5100.29273
527.287	5198.43723
527.494	4968.65699
527.701	5315.30812
527.907	5112.82467
528.114	5361.2016
528.321	5148.32731
528.528	5321.56699
528.735	5306.96263
528.941	5438.36049
529.148	5139.97435
529.355	5388.31515
529.562	5233.92364
529.768	5538.41054
529.975	5162.94409
530.182	5244.35953
530.388	5321.56699
530.595	5482.13906
530.802	5413.33951
531.008	5496.72961
531.215	5440.44542
531.422	5546.7456
531.628	5423.76533
531.835	5609.2465
532.042	5336.1702
532.248	5627.99263
532.455	5457.12401
532.661	5809.10672
532.868	5442.53033
533.074	5727.93973
533.281	5686.30172
533.487	5865.27821
533.694	5486.30791
533.9	5938.06752
534.107	5738.34776
534.313	5929.7502
534.52	5852.79714
534.726	5963.0172
534.933	5913.11444
535.139	5698.79411
535.345	5540.49434
535.552	5975.49077
535.758	5940.14679
535.965	6012.90638
536.171	5931.82957
536.377	5942.22603
536.584	6185.33528
536.79	6106.41203
536.996	6033.68953
537.203	6382.49533
537.409	6193.64102
537.615	6201.94638
537.821	6004.59246
538.028	6403.23675
538.234	6050.31436
538.44	6394.94046
538.646	6392.86633
538.853	6380.42106
539.059	6195.71739
539.265	6270.45131
539.471	6274.6023
539.677	6517.273
539.883	6224.78419
540.09	6253.8464
540.296	6631.23915
540.502	6440.56545
540.708	6320.25706
540.914	6540.07183
541.12	6438.49183
541.326	6486.17917
541.532	6772.04643
541.738	6809.30123
541.944	6560.7956
542.15	6803.09261
542.356	6680.94796
542.562	6668.522
542.768	6448.85969
542.974	7005.80177
543.18	6734.78424
543.386	6740.99512
543.592	6726.50274
543.798	6991.32975
544.004	6908.61126
544.21	6875.51373
544.415	6687.16063
544.621	7119.47228
544.827	6836.20287
545.033	6980.99191
545.239	7055.41178
545.445	7189.70754
545.651	6935.49874
545.856	7311.52566
546.062	7346.61159
546.268	7249.59384
546.474	7185.57677
546.679	6993.39725
546.885	6780.32592
547.091	7239.26994
547.297	7038.87655
547.502	7098.80995
547.708	7028.5413
547.914	7208.29494
548.119	7396.13391
548.325	7412.63857
548.531	7088.47795
548.736	7352.80257
548.942	7231.01043
549.147	7412.63857
549.353	7325.97357
549.559	7259.91718
549.764	7297.07667
549.97	7358.99335
550.175	7107.07515
550.381	7629.13407
550.586	7472.45629
550.792	7530.1941
550.997	7249.59384
551.203	7550.81066
551.408	7639.43749
551.614	7478.64329
551.819	7594.09846
552.025	7750.68074
552.23	7660.04274
552.435	7791.86638
552.641	7865.9795
552.846	7849.51225
553.052	7589.97622
553.257	7861.86281
553.462	7802.16148
553.668	7874.21263
553.873	7820.69135
554.078	7865.9795
554.283	7828.92631
554.489	8088.15887
554.694	7857.74604
554.899	8102.5512
555.105	7822.75012
555.31	8018.23916
555.515	7878.32908
555.72	8141.61115
555.925	7841.27812
556.131	8219.70943
556.336	7701.24689
556.541	8215.59971
556.746	8129.27721
556.951	8188.8846
557.156	8092.27106
557.361	8147.77785
557.567	8073.76554
557.772	8269.01992
557.977	8195.04992
558.182	8351.17893
558.387	8059.37123
558.592	8236.14752
558.797	7966.81264
559.002	8361.44661
559.207	7989.44188
559.412	7993.55602
559.617	8180.66389
559.822	8207.38003
560.027	8145.72231
560.232	8277.23723
560.437	8219.70943
560.642	8457.9392
560.847	8511.29988
561.051	8258.74784
561.256	8110.77495
561.461	8691.8106
561.666	8433.30684
561.871	8453.834
562.076	8429.20117
562.281	8525.66401
562.485	8225.87387
562.69	8412.77775
562.895	8357.33959
563.1	8423.04253
563.305	8593.36819
563.509	8755.36533
563.714	8478.46406
563.919	8591.31685
564.123	8260.80229
564.328	8377.87389
564.533	8548.23436
564.737	8679.50764
564.942	8449.72872
565.147	8845.54192
565.351	8517.45605
565.556	8792.26
565.761	8425.09543
565.965	8628.23812
566.17	8761.51485
566.374	8691.8106
566.579	8646.69649
566.784	8523.61205
566.988	8523.61205
567.193	8886.51972
567.397	8761.51485
567.602	8913.15144
567.806	8747.16571
568.011	8904.95739
568.215	9038.07572
568.42	8909.05445
568.624	8823.00106
568.828	8900.86025
569.033	8587.21412
569.237	8884.471
569.442	8736.91578
569.646	8847.59098
569.85	8825.05032
570.055	9197.72066
570.259	8941.8284
570.463	9310.22866
570.668	9093.34928
570.872	9064.6905
571.076	8927.49036
571.281	9277.50428
571.485	8980.74157
571.689	9261.14049
571.893	9195.67459
572.098	9443.12805
572.302	9293.86701
572.506	9138.37769
572.71	9115.86453
572.914	9230.4555
573.119	9105.63058
573.323	9167.02781
573.527	9130.19132
573.731	9412.46509
573.935	9185.44397
574.139	9606.60294
574.343	9111.771
574.547	9400.19888
574.751	9436.99575
574.955	9496.26858
575.159	9328.63426
575.364	9445.17212
575.568	9484.00635
575.772	9457.43619
575.976	9547.35504
576.18	9531.00846
576.383	9486.05009
576.587	9725.05941
576.791	9531.00846
576.995	9620.90218
577.199	9608.64573
577.403	9561.65747
577.607	9706.68163
577.811	9436.99575
