Data from mixed_try6.1_USB4F045381__1__00285.txt Node

Date: Thu Apr 03 20:31:22 EDT 2025
User: mmckonesweet
Spectrometer: USB4F04538
Trigger mode: 4
Integration Time (sec): 2.700000E-3
Scans to average: 1
Electric dark correction enabled: true
Nonlinearity correction enabled: true
Boxcar width: 0
XAxis mode: Wavelengths
Number of Pixels in Spectrum: 3648
>>>>>Begin Spectral Data<<<<<
345.52	2.80986
345.736	2.80986
345.952	2.80986
346.168	42.8549
346.384	36.53143
346.6	-47.7609
346.816	19.66988
347.032	-5.61958
347.248	19.66988
347.464	2.80986
347.68	34.42366
347.896	-45.65407
348.112	53.39447
348.328	-9.83416
348.544	-18.26301
348.76	28.10047
348.975	-30.90556
349.191	63.93463
349.407	-47.7609
349.623	-22.47729
349.839	-18.26301
350.055	13.34719
350.27	-3.51226
350.486	-3.51226
350.702	30.20817
350.918	7.02472
351.133	-14.04863
351.349	-81.46674
351.565	-30.90556
351.781	-30.90556
351.996	2.80986
352.212	-26.69148
352.428	23.88513
352.644	44.96277
352.859	-1.40491
353.075	49.17857
353.291	-14.04863
353.506	-47.7609
353.722	19.66988
353.938	13.34719
354.153	13.34719
354.369	-3.51226
354.584	70.25899
354.8	70.25899
355.016	-26.69148
355.231	2.80986
355.447	23.88513
355.662	28.10047
355.878	32.3159
356.093	28.10047
356.309	53.39447
356.524	47.07066
356.74	23.88513
356.955	36.53143
357.171	7.02472
357.386	61.82655
357.602	19.66988
357.817	-20.37016
358.033	49.17857
358.248	30.20817
358.464	-30.90556
358.679	-20.37016
358.895	53.39447
359.11	-18.26301
359.325	21.7775
359.541	38.63923
359.756	28.10047
359.972	40.74705
360.187	36.53143
360.402	-37.2265
360.618	-33.01256
360.833	28.10047
361.048	28.10047
361.264	32.3159
361.479	95.55848
361.694	4.91728
361.909	28.10047
362.125	-62.50801
362.34	70.25899
362.555	13.34719
362.77	28.10047
362.986	13.34719
363.201	78.6918
363.416	2.80986
363.631	80.80005
363.847	-41.44034
364.062	95.55848
364.277	-39.33343
364.492	44.96277
364.707	-35.11954
364.922	13.34719
365.138	15.45473
365.353	-20.37016
365.568	-30.90556
365.783	-39.33343
365.998	34.42366
366.213	-64.61464
366.428	17.5623
366.643	15.45473
366.858	47.07066
367.073	-11.94141
367.288	4.91728
367.503	103.99236
367.718	-20.37016
367.933	-39.33343
368.148	4.91728
368.363	19.66988
368.578	-14.04863
368.793	2.80986
369.008	-26.69148
369.223	17.5623
369.438	13.34719
369.653	34.42366
369.868	19.66988
370.083	11.23968
370.298	-39.33343
370.513	150.38492
370.728	44.96277
370.943	53.39447
371.157	-5.61958
371.372	-60.40135
371.587	44.96277
371.802	36.53143
372.017	-24.5844
372.232	-5.61958
372.446	28.10047
372.661	17.5623
372.876	30.20817
373.091	19.66988
373.306	44.96277
373.52	-16.15583
373.735	36.53143
373.95	-30.90556
374.165	68.15085
374.379	2.80986
374.594	-5.61958
374.809	32.3159
375.023	78.6918
375.238	32.3159
375.453	-5.61958
375.667	47.07066
375.882	47.07066
376.097	19.66988
376.311	30.20817
376.526	-20.37016
376.741	49.17857
376.955	53.39447
377.17	-11.94141
377.384	-1.40491
377.599	70.25899
377.813	7.02472
378.028	4.91728
378.242	28.10047
378.457	42.8549
378.672	34.42366
378.886	61.82655
379.101	-5.61958
379.315	38.63923
379.53	-18.26301
379.744	63.93463
379.958	70.25899
380.173	87.12496
380.387	-56.18797
380.602	32.3159
380.816	-20.37016
381.031	-20.37016
381.245	-9.83416
381.459	-26.69148
381.674	-35.11954
381.888	63.93463
382.103	40.74705
382.317	-7.72688
382.531	-5.61958
382.746	55.50246
382.96	66.04272
383.174	-11.94141
383.388	49.17857
383.603	13.34719
383.817	-35.11954
384.031	17.5623
384.246	36.53143
384.46	53.39447
384.674	28.10047
384.888	-26.69148
385.103	55.50246
385.317	-35.11954
385.531	-11.94141
385.745	36.53143
385.959	91.34168
386.174	63.93463
386.388	-20.37016
386.602	40.74705
386.816	4.91728
387.03	19.66988
387.244	11.23968
387.458	44.96277
387.672	53.39447
387.887	4.91728
388.101	61.82655
388.315	40.74705
388.529	17.5623
388.743	44.96277
388.957	11.23968
389.171	21.7775
389.385	-47.7609
389.599	63.93463
389.813	32.3159
390.027	15.45473
390.241	13.34719
390.455	28.10047
390.669	70.25899
390.883	53.39447
391.097	80.80005
391.311	57.61047
391.525	-22.47729
391.738	2.80986
391.952	-43.54722
392.166	30.20817
392.38	70.25899
392.594	-1.40491
392.808	47.07066
393.022	2.80986
393.236	28.10047
393.449	4.91728
393.663	2.80986
393.877	-18.26301
394.091	-14.04863
394.305	-5.61958
394.518	55.50246
394.732	4.91728
394.946	2.80986
395.16	61.82655
395.373	-7.72688
395.587	44.96277
395.801	-1.40491
396.015	70.25899
396.228	-49.86771
396.442	-9.83416
396.656	32.3159
396.869	61.82655
397.083	32.3159
397.297	-39.33343
397.51	11.23968
397.724	-9.83416
397.938	95.55848
398.151	19.66988
398.365	28.10047
398.578	19.66988
398.792	89.23331
399.005	44.96277
399.219	59.7185
399.433	47.07066
399.646	57.61047
399.86	87.12496
400.073	19.66988
400.287	53.39447
400.5	36.53143
400.714	99.77538
400.927	30.20817
401.141	40.74705
401.354	-14.04863
401.567	13.34719
401.781	28.10047
401.994	-28.79853
402.208	-3.51226
402.421	44.96277
402.635	11.23968
402.848	72.36716
403.061	87.12496
403.275	-14.04863
403.488	61.82655
403.701	-49.86771
403.915	11.23968
404.128	17.5623
404.341	85.01664
404.555	66.04272
404.768	-5.61958
404.981	-14.04863
405.195	-3.51226
405.408	80.80005
405.621	40.74705
405.834	59.7185
406.048	-14.04863
406.261	11.23968
406.474	-28.79853
406.687	34.42366
406.9	103.99236
407.114	49.17857
407.327	13.34719
407.54	9.13219
407.753	61.82655
407.966	23.88513
408.179	-7.72688
408.392	74.47535
408.605	51.28651
408.819	55.50246
409.032	47.07066
409.245	-33.01256
409.458	89.23331
409.671	32.3159
409.884	-18.26301
410.097	4.91728
410.31	85.01664
410.523	28.10047
410.736	36.53143
410.949	72.36716
411.162	13.34719
411.375	87.12496
411.588	-9.83416
411.801	53.39447
412.014	28.10047
412.227	28.10047
412.44	-18.26301
412.653	61.82655
412.865	47.07066
413.078	91.34168
413.291	78.6918
413.504	7.02472
413.717	103.99236
413.93	36.53143
414.143	-24.5844
414.356	4.91728
414.568	97.66692
414.781	47.07066
414.994	49.17857
415.207	91.34168
415.42	11.23968
415.632	11.23968
415.845	137.73137
416.058	47.07066
416.271	70.25899
416.483	30.20817
416.696	38.63923
416.909	42.8549
417.121	78.6918
417.334	7.02472
417.547	44.96277
417.759	44.96277
417.972	158.82104
418.185	19.66988
418.397	59.7185
418.61	23.88513
418.823	28.10047
419.035	108.20943
419.248	53.39447
419.46	106.10089
419.673	36.53143
419.885	30.20817
420.098	125.07859
420.311	-14.04863
420.523	23.88513
420.736	49.17857
420.948	163.03922
421.161	51.28651
421.373	-39.33343
421.586	15.45473
421.798	76.58356
422.01	23.88513
422.223	40.74705
422.435	63.93463
422.648	112.42659
422.86	40.74705
423.073	103.99236
423.285	72.36716
423.497	146.16698
423.71	57.61047
423.922	57.61047
424.134	154.60294
424.347	68.15085
424.559	95.55848
424.771	106.10089
424.984	55.50246
425.196	89.23331
425.408	44.96277
425.621	19.66988
425.833	152.49392
426.045	95.55848
426.257	82.90833
426.47	135.62252
426.682	125.07859
426.894	137.73137
427.106	129.2961
427.318	101.88386
427.531	158.82104
427.743	95.55848
427.955	40.74705
428.167	61.82655
428.379	101.88386
428.591	72.36716
428.804	68.15085
429.016	175.69428
429.228	125.07859
429.44	103.99236
429.652	120.86117
429.864	146.16698
430.076	150.38492
430.288	182.02209
430.5	146.16698
430.712	205.22562
430.924	114.5352
431.136	165.14835
431.348	224.21213
431.56	131.40488
431.772	137.73137
431.984	169.36666
432.196	122.96987
432.408	171.47585
432.62	175.69428
432.832	148.27594
433.044	198.89714
433.256	188.35008
433.468	148.27594
433.679	203.11611
433.891	190.45945
434.103	146.16698
434.315	169.36666
434.527	219.99277
434.739	152.49392
434.95	219.99277
435.162	213.66387
435.374	160.93012
435.586	190.45945
435.798	224.21213
436.009	190.45945
436.221	230.54133
436.433	285.40159
436.645	215.77348
436.856	219.99277
437.068	146.16698
437.28	323.38914
437.491	243.20024
437.703	253.74986
437.915	103.99236
438.126	264.29997
438.338	247.42003
438.55	188.35008
438.761	238.98052
438.973	359.27157
439.184	238.98052
439.396	342.38509
439.608	238.98052
439.819	243.20024
440.031	238.98052
440.242	395.15895
440.454	279.07091
440.665	276.96072
440.877	390.93666
441.088	306.50506
441.3	418.38275
441.511	325.49973
441.723	319.16801
441.934	325.49973
442.146	325.49973
442.357	376.15915
442.569	355.04985
442.78	342.38509
442.991	357.1607
443.203	308.61551
443.414	424.71685
443.626	420.4941
443.837	433.16254
444.048	331.83161
444.26	405.71498
444.471	382.49226
444.682	384.60334
444.894	416.27141
445.105	331.83161
445.316	424.71685
445.528	477.5065
445.739	437.38548
445.95	511.29683
446.161	483.8419
446.373	479.61829
446.584	498.62502
446.795	433.16254
447.006	589.45082
447.217	456.38949
447.429	534.52983
447.64	441.60848
447.851	458.50112
448.062	538.7542
448.273	466.9478
448.484	485.95373
448.695	517.63294
448.907	570.43868
449.118	504.96086
449.329	445.83155
449.54	504.96086
449.751	513.40885
449.962	502.8489
450.173	492.28931
450.384	521.85708
450.595	500.73695
450.806	695.0923
451.017	576.77594
451.228	635.92933
451.439	638.04213
451.65	733.13033
451.861	568.32629
452.072	711.99765
452.283	654.94499
452.494	671.84861
452.705	682.41375
452.915	600.01358
453.126	724.67713
453.337	652.83209
453.548	800.76185
453.759	817.67129
453.97	826.12623
454.181	788.08017
454.391	838.80892
454.602	851.49193
454.813	923.36798
455.024	895.88486
455.235	741.5837
455.445	760.60439
455.656	830.35376
455.867	1035.42699
456.078	946.62393
456.288	796.53458
456.499	1018.51126
456.71	942.39551
456.921	864.17524
457.131	1179.2242
457.342	923.36798
457.553	1100.97885
457.763	940.28131
457.974	1143.2729
458.184	1069.25957
458.395	1185.56866
458.606	1155.96146
458.816	1420.33006
459.027	1238.44038
459.237	1291.3139
459.448	1494.35684
459.659	1246.90003
459.869	1418.21501
460.08	1329.3837
460.29	1507.04711
460.501	1399.17959
460.711	1435.13541
460.922	1411.86987
461.132	1485.89665
461.343	1452.05583
461.553	1439.36552
461.764	1500.70198
461.974	1559.9229
462.184	1629.71757
462.395	1760.83962
462.605	1820.0516
462.816	1676.24605
463.026	1790.44602
463.236	1836.96869
463.447	1862.34375
463.657	1803.13423
463.867	2050.51713
464.078	1999.77855
464.288	2044.17502
464.498	2090.68233
464.709	2181.57241
464.919	1887.7181
465.129	2158.32286
465.339	2162.55012
465.55	2179.45885
465.76	2092.79622
465.97	2380.20645
466.18	2352.74079
466.391	2506.94795
466.601	2367.5302
466.811	2606.20047
467.021	2635.75993
467.231	2658.98351
467.441	2532.29148
467.651	2867.92435
467.862	2842.60531
468.072	3053.533
468.282	2846.82529
468.492	2920.66574
468.702	3089.37566
468.912	3399.11214
469.122	3148.40066
469.332	3083.05082
469.542	3171.5856
469.752	3432.80263
469.962	3289.58708
470.172	3632.74428
470.382	3500.16986
470.592	3586.45683
470.802	3432.80263
471.012	3578.03995
471.222	3710.57069
471.432	3800.98446
471.642	3861.94072
471.852	4042.60823
472.062	3929.18334
472.272	4348.97095
472.482	4200.04272
472.691	4384.61371
472.901	4084.60225
473.111	4332.19572
473.321	4432.82625
473.531	4780.44766
473.741	4457.97603
473.95	4809.73681
474.16	4646.49792
474.37	4947.754
474.58	5014.63544
474.79	5181.73541
474.999	4972.83731
475.209	5043.88864
475.419	5450.86971
475.628	5319.48072
475.838	5407.08374
476.048	5488.3923
476.258	5502.98235
476.467	5744.5923
476.677	6100.1798
476.886	5927.67081
477.096	6069.01549
477.306	6278.7532
477.515	6152.10857
477.725	6316.1071
477.935	6245.54338
478.144	6384.56957
478.354	6455.08012
478.563	6939.63493
478.773	6465.44705
478.982	6809.30123
479.192	6958.24669
479.401	6916.88474
479.611	6933.4306
479.82	7088.47795
480.03	7222.75056
480.239	7480.70558
480.449	7224.81556
480.658	7575.5477
480.868	7629.13407
481.077	7929.77763
481.287	7709.48671
481.496	7777.45235
481.705	8086.10274
481.915	8155.99984
482.124	8217.65458
482.333	8299.83321
482.543	8336.80335
482.752	8542.07904
482.961	8482.5688
483.171	8605.67585
483.38	8628.23812
483.589	8950.02118
483.799	8962.30981
484.008	9240.68425
484.217	8882.42226
484.426	9058.54889
484.636	9230.4555
484.845	9663.79532
485.054	9222.27219
485.263	9471.74354
485.472	9565.74374
485.682	9774.06079
485.891	9669.92235
486.1	9945.49766
486.309	10014.85936
486.518	10063.81057
486.727	9898.56699
486.936	10173.92111
487.146	10271.7633
487.355	10497.90558
487.564	10497.90558
487.773	10497.90558
487.982	10589.53963
488.191	10670.97094
488.4	10729.99643
488.609	11031.07641
488.818	10882.60221
489.027	11191.68796
489.236	11287.21041
489.445	11466.00101
489.654	11358.32951
489.863	11212.01381
490.072	11520.8421
490.281	11327.8514
490.49	11817.27422
490.698	11626.44269
490.907	11841.63017
491.116	12070.924
491.325	12093.23923
491.534	12127.72457
491.743	11916.72009
491.952	12214.94253
492.16	12387.31093
492.369	12269.70038
492.578	12630.57202
492.787	12827.14371
492.996	12585.981
493.204	12677.18677
493.413	12628.54522
493.622	12956.81178
493.831	12695.42647
494.039	13078.35641
494.248	13094.56103
494.457	13250.51525
494.665	13568.4225
494.874	13720.25711
495.083	13282.918
495.291	13319.36979
495.5	13416.56806
495.709	13481.36185
495.917	13588.66821
496.126	13485.41133
496.335	13675.72089
496.543	14040.06668
496.752	13934.82037
496.96	13874.09816
497.169	13736.45173
497.377	14171.61564
497.586	14325.41574
497.794	14790.81092
498.003	14139.23522
498.211	14511.58172
498.42	14438.73567
498.628	14337.55741
498.837	14774.6242
499.045	14786.76424
499.254	14655.24553
499.462	15005.28132
499.671	15102.39859
499.879	15286.51636
500.087	15359.35452
500.296	15116.56149
500.504	14867.69722
500.713	15227.8414
500.921	15391.72717
501.129	15349.23808
501.338	15418.03003
501.546	15636.5498
501.754	15148.93383
501.962	15511.10236
502.171	15618.33951
502.379	15725.57892
502.587	15549.54564
502.795	15579.89577
503.004	15863.17319
503.212	16099.92976
503.42	16087.78792
503.628	15998.74942
503.837	16101.95341
504.045	15978.51378
504.253	16249.6839
504.461	16581.60748
504.669	16478.38153
504.877	16618.04152
505.085	16719.25105
505.294	16739.49365
505.502	16502.66949
505.71	16749.61505
505.918	16613.99326
506.126	17116.05223
506.334	16678.76654
506.542	16808.32032
506.75	16921.68817
506.958	17215.26875
507.166	17033.03952
507.374	17172.74654
507.582	17083.65648
507.79	17261.84216
507.998	17235.51787
508.206	17429.92457
508.414	17318.54233
508.622	17504.85971
508.83	17383.34541
509.037	17575.7483
509.245	17302.34204
509.453	17725.64015
509.661	17350.94348
509.869	17567.64654
510.077	17494.73309
510.285	17865.42071
510.492	17824.90293
510.7	18096.3988
510.908	17899.86191
511.116	17938.35621
511.324	18084.24091
511.531	17993.06081
511.739	18120.71499
511.947	18303.10317
512.155	18201.77271
512.362	18175.42831
512.57	18209.87881
512.778	18258.51662
512.985	18459.17039
513.193	18376.06687
513.401	18663.91635
513.608	18876.81343
513.816	18513.9006
514.024	18787.5941
514.231	18536.19889
514.439	18511.8735
514.646	18895.06379
514.854	19268.25411
515.061	18773.40082
515.269	18961.98456
515.477	19158.71657
515.684	18990.37652
515.892	18897.09163
516.099	19091.78283
516.307	18848.42462
516.514	19345.34328
516.722	19440.69866
516.929	19649.70109
517.136	19424.46731
517.344	19562.44227
517.551	19515.77212
517.759	19832.36088
517.966	19931.82328
518.173	19842.50964
518.381	20293.22063
518.588	19844.53941
518.796	20065.809
519.003	20147.02138
519.21	19791.76688
519.418	19887.16544
519.625	20134.83909
519.832	20305.40488
520.039	20451.62771
520.247	20423.19379
520.454	20246.51572
520.661	20514.59146
520.868	20138.89984
521.076	20709.60141
521.283	20283.0672
521.49	20711.63297
521.697	20463.81393
521.904	20589.74699
522.112	20264.79129
522.319	21099.73591
522.526	20689.28609
522.733	20868.07522
522.94	20792.8986
523.147	21105.83296
523.354	20835.56572
523.561	21274.53259
523.768	21073.31577
523.975	21264.36917
524.183	20916.84145
524.39	21510.35207
524.597	21532.71705
524.804	21475.78896
525.011	21595.74819
525.218	21797.06645
525.425	22018.76372
525.632	21557.11575
525.838	21746.2249
526.045	21616.08163
526.252	21872.31638
526.459	22071.65232
526.666	22033.00271
526.873	22293.40514
527.08	22297.47441
527.287	22366.65424
527.494	22287.30126
527.701	22437.87318
527.907	22311.71697
528.114	22612.88697
528.321	22423.62903
528.528	22460.25718
528.735	22724.82813
528.941	22557.93794
529.148	22030.96856
529.355	22822.53083
529.562	22356.48047
529.768	22655.62689
529.975	21856.04568
530.182	22586.42971
530.388	22358.51522
530.595	22655.62689
530.802	22928.38435
531.008	23313.19711
531.215	23541.28846
531.422	23229.7093
531.628	23443.53022
531.835	23445.56678
532.042	23630.90639
532.248	23280.61586
532.455	23608.50135
532.661	23575.91287
532.868	23478.15212
533.074	23783.67765
533.281	23610.53816
533.487	23795.90007
533.694	23734.78902
533.9	24221.71194
534.107	23816.271
534.313	24160.58313
534.52	24219.67427
534.726	24462.17526
534.933	24396.96125
535.139	24608.91635
535.345	24360.27954
535.552	24541.65839
535.758	24121.86948
535.965	24612.99268
536.171	24321.56089
536.377	24849.43647
536.584	24663.94762
536.79	24716.94239
536.996	24706.75096
537.203	24690.44479
537.409	24718.98068
537.615	25006.40391
537.821	24816.8216
538.028	25232.70534
538.234	25071.64114
538.44	25159.30729
538.646	25055.33161
538.853	25240.86085
539.059	24945.24613
539.265	25224.54986
539.471	25483.5029
539.677	25224.54986
539.883	25540.59941
540.09	25510.0118
540.296	25636.44351
540.502	25936.23877
540.708	25618.09004
540.914	26036.17943
541.12	25624.20785
541.326	25919.92234
541.532	25928.08054
541.738	26091.2506
541.944	25758.80397
542.15	26513.50408
542.356	26256.47171
542.562	26070.85372
542.768	26038.21908
542.974	25950.51574
543.18	25854.6578
543.386	26250.35221
543.592	26670.59182
543.798	26442.10362
544.004	26395.18439
544.21	26642.02974
544.415	26672.63198
544.621	27303.11035
544.827	26607.3476
545.033	26988.87465
545.239	26660.39104
545.445	27235.77145
545.651	27048.04644
545.856	27258.21759
546.062	27203.12281
546.268	26888.8974
546.474	26839.93021
546.679	26591.02675
546.885	26588.98666
547.091	26943.98649
547.297	26642.02974
547.502	27215.36601
547.708	26915.42165
547.914	26856.25251
548.119	27227.60926
548.325	27519.42049
548.531	26931.74438
548.736	27352.08497
548.942	27576.56137
549.147	27205.16334
549.353	27354.1256
549.559	27964.32785
549.764	27782.68457
549.97	27790.84812
550.175	27603.09139
550.381	28182.71988
550.586	27615.33608
550.792	28599.12814
550.997	28023.51695
551.203	28478.69176
551.408	28378.67114
551.614	28521.55852
551.819	28352.13549
552.025	28123.52826
552.23	28782.8517
552.435	28646.07891
552.641	28909.42173
552.846	28705.27849
553.052	28523.59981
553.257	28499.10445
553.462	28570.54968
553.668	28617.50011
553.873	28425.61928
554.078	29223.82263
554.283	29087.0348
554.489	29568.87549
554.694	29174.82347
554.899	28997.20652
555.105	28848.17767
555.31	29346.32316
555.515	29182.98995
555.72	29182.98995
555.925	28938.00261
556.131	29366.74029
556.336	29205.44787
556.541	29677.09357
556.746	29268.73906
556.951	28827.76319
557.156	29048.24507
557.361	28933.91962
557.567	29613.79583
557.772	29658.7167
557.977	29479.03634
558.182	29734.26661
558.387	29871.07702
558.592	29971.13554
558.797	29830.23757
559.002	29558.66639
559.207	29673.00981
559.412	30277.45421
559.617	29832.27953
559.822	30169.21862
560.027	30005.85035
560.232	30142.67077
560.437	30195.76667
560.642	30179.42938
560.847	29895.5809
561.051	29942.54711
561.256	29924.16896
561.461	30252.94775
561.666	30234.56801
561.871	30254.98995
562.076	29856.78316
562.281	30261.11655
562.485	29862.90909
562.69	30081.40726
562.895	29850.65724
563.1	30608.30877
563.305	30181.47154
563.509	30428.58126
563.714	30144.71291
563.919	30602.18153
564.123	30808.47169
564.328	30869.74863
564.533	31084.22793
564.737	30663.45443
564.942	30912.64324
565.147	31229.26594
565.351	31074.01427
565.556	31345.71049
565.761	31321.19543
565.965	31331.41001
566.17	31037.2454
566.374	30616.47844
566.579	31233.35163
566.784	31125.08294
566.988	31184.32377
567.193	31296.68059
567.397	31174.10974
567.602	31120.99741
567.806	30775.79115
568.011	31533.66708
568.215	31676.68704
568.42	31339.5817
568.624	31364.09694
568.828	31049.50164
569.033	31182.28096
569.237	31394.74132
569.442	31684.85987
569.646	30922.85633
569.85	31554.09799
