Data from mixed_try6.1_USB4F045381__19__00303.txt Node

Date: Thu Apr 03 20:32:51 EDT 2025
User: mmckonesweet
Spectrometer: USB4F04538
Trigger mode: 4
Integration Time (sec): 2.700000E-3
Scans to average: 1
Electric dark correction enabled: true
Nonlinearity correction enabled: true
Boxcar width: 0
XAxis mode: Wavelengths
Number of Pixels in Spectrum: 3648
>>>>>Begin Spectral Data<<<<<
345.52	-42.66935
345.736	-42.66935
345.952	-42.66935
346.168	-51.09666
346.384	18.44046
346.6	-70.05664
346.816	14.22533
347.032	28.97868
347.248	10.01031
347.464	18.44046
347.68	-19.49219
347.896	-67.95008
348.112	69.02924
348.328	18.44046
348.544	26.87099
348.76	45.84105
348.975	-74.26969
349.191	10.01031
349.407	-8.95613
349.623	-25.81353
349.839	5.79537
350.055	-4.74153
350.27	43.73317
350.486	-19.49219
350.702	31.08639
350.918	-36.3486
351.133	69.02924
351.349	-19.49219
351.565	-57.41689
351.781	-70.05664
351.996	-34.24164
352.212	18.44046
352.428	-19.49219
352.644	18.44046
352.859	-15.27784
353.075	-63.73688
353.291	45.84105
353.506	-6.84884
353.722	10.01031
353.938	-23.70644
354.153	10.01031
354.369	14.22533
354.584	35.30189
354.8	-74.26969
355.016	-27.92059
355.231	-11.06339
355.447	-32.13465
355.662	-46.88306
355.878	26.87099
356.093	-70.05664
356.309	-11.06339
356.524	41.62532
356.74	-93.22713
356.955	-2.6342
357.171	-15.27784
357.386	-103.75813
357.602	33.19413
357.817	-61.63024
358.033	-23.70644
358.248	39.51749
358.464	-2.6342
358.679	-11.06339
358.895	-11.06339
359.11	-2.6342
359.325	-19.49219
359.541	16.33288
359.756	1.58054
359.972	-19.49219
360.187	-70.05664
360.402	-8.95613
360.618	1.58054
360.833	-36.3486
361.048	-13.17063
361.264	-46.88306
361.479	64.813
361.694	-4.74153
361.909	14.22533
362.125	-2.6342
362.34	62.70491
362.555	-27.92059
362.77	5.79537
362.986	47.94895
363.201	-57.41689
363.416	71.13739
363.631	-2.6342
363.847	7.90283
364.062	-51.09666
364.277	43.73317
364.492	58.48881
364.707	-11.06339
364.922	20.54805
365.138	-76.37618
365.353	-15.27784
365.568	-44.77622
365.783	-25.81353
365.998	-34.24164
366.213	47.94895
366.428	56.38079
366.643	31.08639
366.858	69.02924
367.073	-2.6342
367.288	24.76332
367.503	-25.81353
367.718	5.79537
367.933	5.79537
368.148	62.70491
368.363	-53.20343
368.578	-19.49219
368.793	-19.49219
369.008	22.65567
369.223	-25.81353
369.438	-53.20343
369.653	31.08639
369.868	-8.95613
370.083	24.76332
370.298	-44.77622
370.513	-19.49219
370.728	-21.59933
370.943	22.65567
371.157	81.6785
371.372	-25.81353
371.587	-17.38502
371.802	16.33288
372.017	-36.3486
372.232	-23.70644
372.446	7.90283
372.661	-8.95613
372.876	-70.05664
373.091	-51.09666
373.306	22.65567
373.52	-76.37618
373.735	-51.09666
373.95	-25.81353
374.165	-40.56246
374.379	39.51749
374.594	-34.24164
374.809	-21.59933
375.023	-40.56246
375.238	-57.41689
375.453	5.79537
375.667	-6.84884
375.882	-11.06339
376.097	43.73317
376.311	-6.84884
376.526	-51.09666
376.741	-59.52357
376.955	-11.06339
377.17	-15.27784
377.384	-67.95008
377.599	43.73317
377.813	7.90283
378.028	16.33288
378.242	-51.09666
378.457	41.62532
378.672	-99.54581
378.886	-15.27784
379.101	35.30189
379.315	-32.13465
379.53	14.22533
379.744	5.79537
379.958	47.94895
380.173	-25.81353
380.387	-13.17063
380.602	-53.20343
380.816	-67.95008
381.031	-36.3486
381.245	-23.70644
381.459	-19.49219
381.674	31.08639
381.888	-63.73688
382.103	-30.02763
382.317	-80.58907
382.531	24.76332
382.746	14.22533
382.96	-15.27784
383.174	-53.20343
383.388	16.33288
383.603	5.79537
383.817	-11.06339
384.031	-0.52684
384.246	22.65567
384.46	-19.49219
384.674	5.79537
384.888	-36.3486
385.103	-25.81353
385.317	69.02924
385.531	-19.49219
385.745	10.01031
385.959	39.51749
386.174	-15.27784
386.388	-40.56246
386.602	-32.13465
386.816	-44.77622
387.03	-34.24164
387.244	5.79537
387.458	-2.6342
387.672	-59.52357
387.887	26.87099
388.101	-32.13465
388.315	-15.27784
388.529	5.79537
388.743	43.73317
388.957	-63.73688
389.171	-27.92059
389.385	-80.58907
389.599	-93.22713
389.813	16.33288
390.027	-6.84884
390.241	-2.6342
390.455	56.38079
390.669	24.76332
390.883	7.90283
391.097	-11.06339
391.311	31.08639
391.525	10.01031
391.738	12.11781
391.952	-32.13465
392.166	1.58054
392.38	-97.43961
392.594	-44.77622
392.808	58.48881
393.022	18.44046
393.236	-78.48264
393.449	35.30189
393.663	14.22533
393.877	5.79537
394.091	28.97868
394.305	-15.27784
394.518	-51.09666
394.732	-40.56246
394.946	5.79537
395.16	10.01031
395.373	47.94895
395.587	-76.37618
395.801	14.22533
396.015	10.01031
396.228	1.58054
396.442	41.62532
396.656	-86.90822
396.869	-6.84884
397.083	33.19413
397.297	22.65567
397.51	14.22533
397.724	-21.59933
397.938	7.90283
398.151	-11.06339
398.365	-30.02763
398.578	18.44046
398.792	-17.38502
399.005	5.79537
399.219	-11.06339
399.433	24.76332
399.646	10.01031
399.86	45.84105
400.073	-86.90822
400.287	-36.3486
400.5	-8.95613
400.714	-2.6342
400.927	-0.52684
401.141	10.01031
401.354	26.87099
401.567	22.65567
401.781	10.01031
401.994	37.40968
402.208	47.94895
402.421	20.54805
402.635	18.44046
402.848	-15.27784
403.061	-6.84884
403.275	-0.52684
403.488	-8.95613
403.701	-15.27784
403.915	-0.52684
404.128	77.46199
404.341	35.30189
404.555	-6.84884
404.768	-67.95008
404.981	-19.49219
405.195	14.22533
405.408	-95.33338
405.621	50.05688
405.834	-27.92059
406.048	-46.88306
406.261	-84.80186
406.474	5.79537
406.687	18.44046
406.9	64.813
407.114	-17.38502
407.327	33.19413
407.54	-32.13465
407.753	22.65567
407.966	-42.66935
408.179	-51.09666
408.392	24.76332
408.605	58.48881
408.819	-40.56246
409.032	-53.20343
409.245	90.11179
409.458	-8.95613
409.671	-23.70644
409.884	-70.05664
410.097	14.22533
410.31	-65.84349
410.523	-17.38502
410.736	-8.95613
410.949	1.58054
411.162	-23.70644
411.375	16.33288
411.588	54.2728
411.801	-6.84884
412.014	1.58054
412.227	-44.77622
412.44	-21.59933
412.653	58.48881
412.865	-32.13465
413.078	-6.84884
413.291	-48.98987
413.504	-78.48264
413.717	14.22533
413.93	10.01031
414.143	1.58054
414.356	-25.81353
414.568	5.79537
414.781	5.79537
414.994	-19.49219
415.207	39.51749
415.42	22.65567
415.632	-17.38502
415.845	41.62532
416.058	-0.52684
416.271	92.22017
416.483	-27.92059
416.696	-32.13465
416.909	-67.95008
417.121	10.01031
417.334	-2.6342
417.547	45.84105
417.759	-19.49219
417.972	58.48881
418.185	-57.41689
418.397	-15.27784
418.61	92.22017
418.823	-61.63024
419.035	-57.41689
419.248	-76.37618
419.46	26.87099
419.673	-19.49219
419.885	-34.24164
420.098	-34.24164
420.311	-15.27784
420.523	20.54805
420.736	12.11781
420.948	-27.92059
421.161	-34.24164
421.373	-74.26969
421.586	18.44046
421.798	20.54805
422.01	-19.49219
422.223	-84.80186
422.435	-23.70644
422.648	-11.06339
422.86	31.08639
423.073	64.813
423.285	39.51749
423.497	-0.52684
423.71	-34.24164
423.922	104.87091
424.134	14.22533
424.347	14.22533
424.559	-59.52357
424.771	24.76332
424.984	-17.38502
425.196	-40.56246
425.408	-36.3486
425.621	14.22533
425.833	-34.24164
426.045	-17.38502
426.257	43.73317
426.47	-78.48264
426.682	20.54805
426.894	31.08639
427.106	31.08639
427.318	-17.38502
427.531	58.48881
427.743	43.73317
427.955	24.76332
428.167	-44.77622
428.379	31.08639
428.591	-44.77622
428.804	47.94895
429.016	18.44046
429.228	-40.56246
429.44	60.59685
429.652	-6.84884
429.864	-15.27784
430.076	7.90283
430.288	-27.92059
430.5	-53.20343
430.712	-48.98987
430.924	7.90283
431.136	1.58054
431.348	-19.49219
431.56	-23.70644
431.772	-34.24164
431.984	-8.95613
432.196	-8.95613
432.408	7.90283
432.62	43.73317
432.832	24.76332
433.044	-48.98987
433.256	60.59685
433.468	-42.66935
433.679	58.48881
433.891	-19.49219
434.103	14.22533
434.315	-40.56246
434.527	43.73317
434.739	-57.41689
434.95	14.22533
435.162	18.44046
435.374	31.08639
435.586	35.30189
435.798	-40.56246
436.009	69.02924
436.221	121.73979
436.433	35.30189
436.645	7.90283
436.856	-78.48264
437.068	14.22533
437.28	66.92111
437.491	-32.13465
437.703	-27.92059
437.915	66.92111
438.126	75.35377
438.338	54.2728
438.55	-63.73688
438.761	-0.52684
438.973	-44.77622
439.184	31.08639
439.396	-48.98987
439.608	33.19413
439.819	-2.6342
440.031	-19.49219
440.242	22.65567
440.454	33.19413
440.665	1.58054
440.877	-59.52357
441.088	-0.52684
441.3	-23.70644
441.511	20.54805
441.723	60.59685
441.934	-17.38502
442.146	14.22533
442.357	26.87099
442.569	-2.6342
442.78	-15.27784
442.991	43.73317
443.203	5.79537
443.414	-32.13465
443.626	14.22533
443.837	14.22533
444.048	73.24557
444.26	85.8951
444.471	16.33288
444.682	22.65567
444.894	16.33288
445.105	31.08639
445.316	10.01031
445.528	20.54805
445.739	31.08639
445.95	18.44046
446.161	-8.95613
446.373	35.30189
446.584	-19.49219
446.795	50.05688
447.006	-6.84884
447.217	81.6785
447.429	35.30189
447.64	22.65567
447.851	-48.98987
448.062	64.813
448.273	-34.24164
448.484	39.51749
448.695	20.54805
448.907	14.22533
449.118	20.54805
449.329	7.90283
449.54	22.65567
449.751	-38.45555
449.962	5.79537
450.173	-0.52684
450.384	-61.63024
450.595	-25.81353
450.806	-30.02763
451.017	33.19413
451.228	-0.52684
451.439	47.94895
451.65	1.58054
451.861	1.58054
452.072	-4.74153
452.283	12.11781
452.494	56.38079
452.705	33.19413
452.915	18.44046
453.126	-0.52684
453.337	-11.06339
453.548	16.33288
453.759	69.02924
453.97	52.16483
454.181	-2.6342
454.391	88.00344
454.602	14.22533
454.813	-40.56246
455.024	-11.06339
455.235	-17.38502
455.445	92.22017
455.656	43.73317
455.867	7.90283
456.078	47.94895
456.288	-2.6342
456.499	39.51749
456.71	98.54544
456.921	33.19413
457.131	-36.3486
457.342	-2.6342
457.553	39.51749
457.763	-23.70644
457.974	-27.92059
458.184	50.05688
458.395	1.58054
458.606	-8.95613
458.816	39.51749
459.027	39.51749
459.237	-8.95613
459.448	33.19413
459.659	18.44046
459.869	-17.38502
460.08	-2.6342
460.29	-40.56246
460.501	24.76332
460.711	5.79537
460.922	16.33288
461.132	7.90283
461.343	-4.74153
461.553	35.30189
461.764	37.40968
461.974	33.19413
462.184	12.11781
462.395	26.87099
462.605	26.87099
462.816	31.08639
463.026	12.11781
463.236	-11.06339
463.447	-2.6342
463.657	56.38079
463.867	62.70491
464.078	26.87099
464.288	52.16483
464.498	90.11179
464.709	31.08639
464.919	39.51749
465.129	75.35377
465.339	56.38079
465.55	33.19413
465.76	-8.95613
465.97	-19.49219
466.18	39.51749
466.391	-27.92059
466.601	-19.49219
466.811	79.57023
467.021	39.51749
467.231	-48.98987
467.441	7.90283
467.651	45.84105
467.862	31.08639
468.072	5.79537
468.282	33.19413
468.492	18.44046
468.702	22.65567
468.912	56.38079
469.122	92.22017
469.332	1.58054
469.542	24.76332
469.752	-27.92059
469.962	56.38079
470.172	100.65391
470.382	-4.74153
470.592	5.79537
470.802	85.8951
471.012	142.82785
471.222	18.44046
471.432	52.16483
471.642	18.44046
471.852	56.38079
472.062	47.94895
472.272	-6.84884
472.482	50.05688
472.691	106.97945
472.901	7.90283
473.111	58.48881
473.321	31.08639
473.531	5.79537
473.741	35.30189
473.95	119.63111
474.16	50.05688
474.37	109.088
474.58	62.70491
474.79	66.92111
474.999	56.38079
475.209	69.02924
475.419	115.4138
475.628	100.65391
475.838	14.22533
476.048	147.04571
476.258	47.94895
476.467	98.54544
476.677	98.54544
476.886	125.95723
477.096	47.94895
477.306	94.32857
477.515	52.16483
477.725	119.63111
477.935	117.52244
478.144	98.54544
478.354	37.40968
478.563	90.11179
478.773	73.24557
478.982	98.54544
479.192	106.97945
479.401	100.65391
479.611	104.87091
479.82	31.08639
480.03	90.11179
480.239	161.80891
480.449	119.63111
480.658	144.93677
480.868	138.61006
481.077	159.69982
481.287	81.6785
481.496	149.15468
481.705	125.95723
481.915	100.65391
482.124	182.90097
482.333	144.93677
482.543	208.21413
482.752	136.50121
482.961	170.24549
483.171	136.50121
483.38	252.51905
483.589	187.11962
483.799	140.71894
484.008	229.31064
484.217	178.68239
484.426	180.79167
484.636	193.44776
484.845	149.15468
485.054	250.4091
485.263	208.21413
485.472	237.74979
485.682	252.51905
485.891	227.2009
486.1	269.39935
486.309	233.53017
486.518	233.53017
486.727	284.17061
486.936	248.29916
487.146	286.28086
487.355	292.61173
487.564	229.31064
487.773	237.74979
487.982	377.03874
488.191	273.61962
488.4	241.96948
488.609	358.04023
488.818	343.26457
489.027	284.17061
489.236	317.93686
489.445	402.37219
489.654	322.15797
489.863	330.6004
490.072	364.37291
490.281	368.59479
490.49	324.26855
490.698	410.8172
490.907	393.92744
491.116	474.16288
491.325	457.26933
491.534	463.6043
491.743	362.262
491.952	389.70517
492.16	385.48296
492.369	516.40091
492.578	482.61001
492.787	427.708
492.996	438.26527
493.204	520.62503
493.413	446.71136
493.622	573.43126
493.831	598.78124
494.039	596.66867
494.248	539.63428
494.457	605.11903
494.665	579.76858
494.874	676.95506
495.083	579.76858
495.291	712.87816
495.5	636.80966
495.709	660.05121
495.917	683.29419
496.126	632.58408
496.335	731.89756
496.543	757.2581
496.752	622.02035
496.96	759.37154
497.169	641.03529
497.377	791.07442
497.586	725.55767
497.794	765.71194
498.003	734.01088
498.211	827.00696
498.42	706.53856
498.628	858.71433
498.837	693.85964
499.045	884.08162
499.254	803.75619
499.462	896.76571
499.671	854.48657
499.879	903.10786
500.087	858.71433
500.296	911.56417
500.504	854.48657
500.713	1013.04897
500.921	1163.18696
501.129	892.53765
501.338	934.81966
501.546	1103.97461
501.754	917.90649
501.962	1106.08928
502.171	1114.54799
502.379	1072.25523
502.587	979.21894
502.795	1078.59901
503.004	911.56417
503.212	1218.17265
503.42	1023.62118
503.628	1120.89207
503.837	1120.89207
504.045	1292.19514
504.253	1123.00677
504.461	1209.71316
504.669	1089.17209
504.877	1207.59829
505.085	1120.89207
505.294	1268.93059
505.502	1154.72785
505.71	1410.63609
505.918	1235.09178
506.126	1326.03495
506.334	1340.84
506.542	1408.52104
506.75	1089.17209
506.958	1338.72499
507.166	1283.73527
507.374	1368.33529
507.582	1416.98123
507.79	1499.4682
507.998	1292.19514
508.206	1636.94366
508.414	1370.45033
508.622	1427.55648
508.83	1438.13174
509.037	1539.65393
509.245	1349.30007
509.453	1594.64423
509.661	1649.63332
509.869	1685.58684
510.077	1649.63332
510.285	1577.72425
510.492	1404.29095
510.7	1641.17355
510.908	1636.94366
511.116	1723.65435
511.324	1535.42387
511.531	1704.62072
511.739	1573.49424
511.947	1562.91918
512.155	1687.70173
512.362	1700.39099
512.57	1649.63332
512.778	1691.93149
512.985	1672.89745
513.193	1679.24216
513.401	1763.83554
513.608	1911.85827
513.816	1672.89745
514.024	1717.30984
514.231	1662.32288
514.439	1886.48464
514.646	1738.4581
514.854	1825.162
515.061	1810.35939
515.269	1865.33937
515.477	2091.56312
515.684	1924.54479
515.892	1706.73558
516.099	1937.2311
516.307	1890.71363
516.514	2110.58778
516.722	1854.76655
516.929	1922.43038
517.136	1797.67127
517.344	2102.13245
517.551	1966.83169
517.759	2072.53785
517.966	1916.08713
518.173	2161.31717
518.381	2070.42389
518.588	2228.94902
518.796	2173.9988
519.003	2324.04091
519.21	2197.24767
519.418	2372.63596
519.625	2040.82777
519.832	2347.28267
520.039	2330.37969
520.247	2446.57456
520.454	2385.31205
520.661	2611.30317
520.868	2266.98802
521.076	2554.28972
521.283	2324.04091
521.49	2414.88816
521.697	2516.27597
521.904	2410.66313
522.112	2488.81929
522.319	2689.41816
522.526	2459.24844
522.733	2600.74578
522.94	2478.25852
523.147	2554.28972
523.354	2598.63427
523.561	2775.95741
523.768	2478.25852
523.975	2702.08382
524.183	2490.93141
524.39	2702.08382
524.597	2706.3056
524.804	2873.02308
525.011	2642.97347
525.218	2951.0758
525.425	2585.96494
525.632	2917.32572
525.838	2740.07798
526.045	2925.76359
526.252	2826.60404
526.459	3050.19449
526.666	2881.46216
526.873	2862.4739
527.08	2797.06113
527.287	2856.14422
527.494	2841.37447
527.701	2974.27678
527.907	2995.36701
528.114	2832.93431
528.321	2984.82209
528.528	3223.04207
528.735	3058.62856
528.941	2942.63863
529.148	3031.21692
529.355	3043.86877
529.562	3026.99951
529.768	3254.64866
529.975	3018.56452
530.182	3277.82441
530.388	3294.67822
530.595	3309.42441
530.802	3174.5714
531.008	3359.97637
531.215	3315.74395
531.422	3404.2011
531.628	3300.99812
531.835	3463.15525
532.042	3229.36369
532.248	3349.44553
532.455	3319.95689
532.661	3399.98955
532.868	3250.43466
533.074	3692.51869
533.281	3461.04999
533.487	3515.78097
533.694	3389.46038
533.9	3663.07163
534.107	3393.6721
534.313	3583.12518
534.52	3578.91673
534.726	3778.7348
534.933	3604.16635
535.139	3837.59524
535.345	3589.43773
535.552	3831.28951
535.758	3631.51707
535.965	3774.5299
536.171	3675.69226
536.377	3909.04773
536.584	3799.75816
536.79	3814.47334
536.996	3705.13771
537.203	3915.35125
537.409	3818.6775
537.615	3696.72511
537.821	3999.38077
538.028	4129.56161
538.234	3799.75816
538.44	4030.88343
538.646	3852.30793
538.853	3990.97929
539.059	3808.16695
539.265	4123.26438
539.471	3990.97929
539.677	4167.34105
539.883	4053.98243
540.09	4335.16644
540.296	3995.18007
540.502	4093.8748
540.708	4072.87975
540.914	4175.73555
541.12	4089.67596
541.326	4368.71502
541.532	4205.11365
541.738	4328.87546
541.944	4408.54674
542.15	4578.2668
542.356	4297.41767
542.562	4318.39007
542.768	4305.80689
542.974	4546.8481
543.18	4351.94142
543.386	4733.1921
543.592	4561.51078
543.798	4808.51652
544.004	4377.1013
544.21	4691.33253
544.415	4412.7391
544.621	4634.80783
544.827	4609.68049
545.033	4507.04391
545.239	4381.29431
545.445	4791.7803
545.651	4483.99574
545.856	4835.70977
546.062	4745.74821
546.268	4687.14608
546.474	4620.15061
546.679	4655.74481
546.885	4705.98441
547.091	4703.89135
547.297	4687.14608
547.502	4890.0847
547.708	4605.49229
547.914	4829.43475
548.119	4697.61204
548.325	4942.35369
548.531	4645.2766
548.736	4925.62917
548.942	4821.06773
549.147	4837.8014
549.353	5000.87791
549.559	5013.41646
549.764	4940.26321
549.97	5021.77503
550.175	4963.25727
550.381	5266.09911
550.586	4915.1756
550.792	5107.42907
550.997	4971.61806
551.203	5153.37371
551.408	5025.95418
551.614	5393.35505
551.819	5117.87202
552.025	5478.83866
552.23	5322.43626
552.435	5483.00758
552.641	5474.66964
552.846	5405.86731
553.052	5216.00733
553.257	5512.18739
553.462	5522.60763
553.668	5480.92313
553.873	5447.56875
554.078	5491.34514
554.283	5612.19741
554.489	5618.44623
554.694	5516.35556
554.899	5730.88874
555.105	5622.61199
555.31	5728.80709
555.515	5555.94845
555.72	5760.02926
555.925	5510.10327
556.131	5916.06047
556.336	5580.95011
556.541	5714.23493
556.746	5616.36331
556.951	5668.42917
557.156	5716.31674
557.361	5730.88874
557.567	5489.26078
557.772	5820.37707
557.977	5668.42917
558.182	5789.16517
558.387	5949.32995
558.592	6111.43228
558.797	5893.18419
559.002	6028.32078
559.207	5949.32995
559.412	5799.56972
559.617	5701.74358
559.822	5922.29895
560.027	5818.29644
560.232	6184.12399
560.437	5938.93388
560.642	5968.04138
560.847	6088.58037
561.051	5932.69596
561.256	5782.92215
561.461	6080.26988
561.666	6042.86801
561.871	6283.76875
562.076	6065.72561
562.281	6275.46708
562.485	5951.40909
562.69	6138.43542
562.895	5974.2781
563.1	6206.96402
563.305	5913.98092
563.509	6078.1922
563.714	6067.80344
563.919	6279.61796
564.123	6217.34491
564.328	6325.27148
564.533	6146.74328
564.737	6281.69337
564.942	6267.16504
565.147	6447.65013
565.351	6196.58254
565.556	6327.34637
565.761	6368.83928
565.965	6472.53079
566.17	6281.69337
566.374	6474.60403
566.579	6339.79522
566.784	6375.06242
566.988	6484.96986
567.193	6582.38041
567.397	6265.08947
567.602	6445.57659
567.806	6431.06117
568.011	6487.04296
568.215	6669.38494
568.42	6617.60143
568.624	6302.44613
568.828	6627.95928
569.033	6594.81212
569.237	6863.96271
569.442	6561.65904
569.646	6830.85733
569.85	6582.38041
570.055	6913.60987
570.259	6636.24515
570.463	6642.45931
570.668	6582.38041
570.872	6861.89379
571.076	6768.76904
571.281	6936.36045
571.485	6727.36542
571.689	6915.67821
571.893	6719.08359
572.098	6969.44733
572.302	6797.74613
572.506	7081.073
572.71	6714.94254
572.914	7039.73779
573.119	6911.54149
573.323	7134.7954
573.527	6785.32793
573.731	7072.80668
573.935	6985.9886
574.139	7211.22057
574.343	6750.13854
574.547	7186.43735
574.751	7000.46103
574.955	7240.13029
575.159	7014.93236
575.364	7021.13402
575.568	7110.00232
575.772	7202.95985
575.976	7186.43735
576.18	7188.50274
576.383	7174.04455
576.587	7211.22057
576.791	7054.20613
576.995	7320.64173
577.199	7260.77744
577.403	7372.23408
