Data from mixed_try6.1_USB4F045381__27__00311.txt Node

Date: Thu Apr 03 20:34:08 EDT 2025
User: mmckonesweet
Spectrometer: USB4F04538
Trigger mode: 4
Integration Time (sec): 2.700000E-3
Scans to average: 1
Electric dark correction enabled: true
Nonlinearity correction enabled: true
Boxcar width: 0
XAxis mode: Wavelengths
Number of Pixels in Spectrum: 3648
>>>>>Begin Spectral Data<<<<<
345.52	-25.63794
345.736	-25.63794
345.952	-25.63794
346.168	-2.45859
346.384	-6.67324
346.6	58.66448
346.816	5.97099
347.032	-42.49378
347.248	-27.74501
347.464	-0.35123
347.68	18.61609
347.896	3.86356
348.112	-67.77453
348.328	-4.56592
348.544	-0.35123
348.76	27.04663
348.975	29.15432
349.191	-86.73269
349.407	-8.78052
349.623	10.18593
349.839	-42.49378
350.055	24.93896
350.27	-4.56592
350.486	-8.78052
350.702	16.50851
350.918	-6.67324
351.133	5.97099
351.349	-17.20943
351.565	-50.9211
351.781	-0.35123
351.996	-25.63794
352.212	-17.20943
352.428	12.29343
352.644	-93.05161
352.859	-8.78052
353.075	-48.81431
353.291	-10.88778
353.506	-6.67324
353.722	-27.74501
353.938	41.80097
354.153	-23.53085
354.369	18.61609
354.584	-42.49378
354.8	-46.70749
355.016	54.44846
355.231	-21.42373
355.447	-82.51994
355.662	-59.34802
355.878	50.23254
356.093	-8.78052
356.309	41.80097
356.524	-31.95906
356.74	-40.38689
356.955	-42.49378
357.171	-6.67324
357.386	92.39587
357.602	24.93896
357.817	-53.02787
358.033	79.74592
358.248	10.18593
358.464	10.18593
358.679	3.86356
358.895	24.93896
359.11	-55.13461
359.325	-55.13461
359.541	16.50851
359.756	-42.49378
359.972	1.75615
360.187	-19.31659
360.402	3.86356
360.618	-65.66794
360.833	-80.41353
361.048	-12.99502
361.264	31.26204
361.479	-17.20943
361.694	-80.41353
361.909	5.97099
362.125	-63.56133
362.34	-36.17303
362.555	-4.56592
362.77	18.61609
362.986	-65.66794
363.201	41.80097
363.416	-0.35123
363.631	8.07845
363.847	-17.20943
364.062	-109.90091
364.277	-93.05161
364.492	-17.20943
364.707	-8.78052
364.922	-80.41353
365.138	60.77252
365.353	29.15432
365.568	-44.60065
365.783	-8.78052
365.998	-40.38689
366.213	-31.95906
366.428	-8.78052
366.643	-6.67324
366.858	-27.74501
367.073	33.36978
367.288	-8.78052
367.503	18.61609
367.718	20.72369
367.933	-55.13461
368.148	-8.78052
368.363	-31.95906
368.578	18.61609
368.793	-57.24133
369.008	-25.63794
369.223	8.07845
369.438	12.29343
369.653	-63.56133
369.868	29.15432
370.083	-57.24133
370.298	-34.06606
370.513	-67.77453
370.728	-17.20943
370.943	-25.63794
371.157	37.58533
371.372	-17.20943
371.587	18.61609
371.802	29.15432
372.017	43.90883
372.232	-25.63794
372.446	-15.10224
372.661	10.18593
372.876	-40.38689
373.091	-48.81431
373.306	-25.63794
373.52	27.04663
373.735	-12.99502
373.95	27.04663
374.165	8.07845
374.379	29.15432
374.594	-59.34802
374.809	-29.85205
375.023	-17.20943
375.238	46.01671
375.453	-38.27997
375.667	52.34049
375.882	-4.56592
376.097	46.01671
376.311	-25.63794
376.526	-29.85205
376.741	8.07845
376.955	-57.24133
377.17	18.61609
377.384	-38.27997
377.599	-34.06606
377.813	18.61609
378.028	20.72369
378.242	-6.67324
378.457	-2.45859
378.672	-21.42373
378.886	-15.10224
379.101	-21.42373
379.315	-57.24133
379.53	3.86356
379.744	8.07845
379.958	8.07845
380.173	33.36978
380.387	-0.35123
380.602	-42.49378
380.816	8.07845
381.031	-88.83902
381.245	-31.95906
381.459	-0.35123
381.674	58.66448
381.888	33.36978
382.103	-46.70749
382.317	1.75615
382.531	12.29343
382.746	-6.67324
382.96	-44.60065
383.174	20.72369
383.388	37.58533
383.603	3.86356
383.817	10.18593
384.031	-76.20064
384.246	-0.35123
384.46	52.34049
384.674	46.01671
384.888	-6.67324
385.103	-38.27997
385.317	-12.99502
385.531	-25.63794
385.745	16.50851
385.959	-6.67324
386.174	-59.34802
386.388	-10.88778
386.602	24.93896
386.816	-4.56592
387.03	-82.51994
387.244	-4.56592
387.458	-42.49378
387.672	64.98867
387.887	24.93896
388.101	22.83131
388.315	54.44846
388.529	37.58533
388.743	33.36978
388.957	86.0708
389.171	43.90883
389.385	-15.10224
389.599	-0.35123
389.813	-0.35123
390.027	-0.35123
390.241	-15.10224
390.455	37.58533
390.669	-88.83902
390.883	33.36978
391.097	16.50851
391.311	52.34049
391.525	24.93896
391.738	88.17913
391.952	58.66448
392.166	3.86356
392.38	-80.41353
392.594	-19.31659
392.808	-27.74501
393.022	3.86356
393.236	-12.99502
393.449	-48.81431
393.663	-15.10224
393.877	-0.35123
394.091	46.01671
394.305	-17.20943
394.518	-25.63794
394.732	18.61609
394.946	-0.35123
395.16	-12.99502
395.373	-15.10224
395.587	-46.70749
395.801	-15.10224
396.015	-8.78052
396.228	-17.20943
396.442	1.75615
396.656	-38.27997
396.869	-17.20943
397.083	-0.35123
397.297	-10.88778
397.51	10.18593
397.724	27.04663
397.938	27.04663
398.151	-29.85205
398.365	58.66448
398.578	-36.17303
398.792	18.61609
399.005	-25.63794
399.219	-4.56592
399.433	8.07845
399.646	18.61609
399.86	18.61609
400.073	10.18593
400.287	-25.63794
400.5	24.93896
400.714	-10.88778
400.927	16.50851
401.141	-21.42373
401.354	27.04663
401.567	5.97099
401.781	-84.62633
401.994	-17.20943
402.208	-21.42373
402.421	58.66448
402.635	27.04663
402.848	-21.42373
403.061	-34.06606
403.275	-44.60065
403.488	-46.70749
403.701	50.23254
403.915	37.58533
404.128	-57.24133
404.341	8.07845
404.555	20.72369
404.768	50.23254
404.981	-0.35123
405.195	27.04663
405.408	50.23254
405.621	18.61609
405.834	-25.63794
406.048	43.90883
406.261	8.07845
406.474	-0.35123
406.687	83.96248
406.9	-21.42373
407.114	77.63768
407.327	-6.67324
407.54	-40.38689
407.753	-34.06606
407.966	-17.20943
408.179	8.07845
408.392	3.86356
408.605	62.88058
408.819	3.86356
409.032	-15.10224
409.245	12.29343
409.458	35.47754
409.671	5.97099
409.884	-80.41353
410.097	27.04663
410.31	58.66448
410.523	-42.49378
410.736	-4.56592
410.949	46.01671
411.162	-0.35123
411.375	33.36978
411.588	16.50851
411.801	62.88058
412.014	29.15432
412.227	-59.34802
412.44	1.75615
412.653	3.86356
412.865	-40.38689
413.078	-8.78052
413.291	83.96248
413.504	-42.49378
413.717	-74.09415
413.93	-55.13461
414.143	-8.78052
414.356	5.97099
414.568	-17.20943
414.781	-25.63794
414.994	-59.34802
415.207	24.93896
415.42	88.17913
415.632	-29.85205
415.845	-17.20943
416.058	50.23254
416.271	43.90883
416.483	3.86356
416.696	-17.20943
416.909	20.72369
417.121	-4.56592
417.334	54.44846
417.547	-8.78052
417.759	-84.62633
417.972	33.36978
418.185	-34.06606
418.397	-15.10224
418.61	46.01671
418.823	3.86356
419.035	12.29343
419.248	62.88058
419.46	58.66448
419.673	29.15432
419.885	16.50851
420.098	8.07845
420.311	-31.95906
420.523	18.61609
420.736	-17.20943
420.948	-42.49378
421.161	54.44846
421.373	-42.49378
421.586	14.40096
421.798	37.58533
422.01	-2.45859
422.223	31.26204
422.435	14.40096
422.648	16.50851
422.86	75.52945
423.073	52.34049
423.285	-17.20943
423.497	24.93896
423.71	1.75615
423.922	-25.63794
424.134	37.58533
424.347	-8.78052
424.559	18.61609
424.771	-34.06606
424.984	-12.99502
425.196	41.80097
425.408	-40.38689
425.621	58.66448
425.833	-8.78052
426.045	3.86356
426.257	8.07845
426.47	-93.05161
426.682	-6.67324
426.894	-21.42373
427.106	3.86356
427.318	12.29343
427.531	18.61609
427.743	-40.38689
427.955	-82.51994
428.167	27.04663
428.379	20.72369
428.591	-0.35123
428.804	-50.9211
429.016	8.07845
429.228	-31.95906
429.44	24.93896
429.652	20.72369
429.864	75.52945
430.076	29.15432
430.288	-0.35123
430.5	43.90883
430.712	-4.56592
430.924	41.80097
431.136	-80.41353
431.348	-55.13461
431.56	46.01671
431.772	20.72369
431.984	16.50851
432.196	-17.20943
432.408	-21.42373
432.62	-12.99502
432.832	41.80097
433.044	27.04663
433.256	24.93896
433.468	22.83131
433.679	-8.78052
433.891	35.47754
434.103	-50.9211
434.315	-0.35123
434.527	10.18593
434.739	-63.56133
434.95	-10.88778
435.162	39.69314
435.374	10.18593
435.586	-25.63794
435.798	35.47754
436.009	-15.10224
436.221	24.93896
436.433	-12.99502
436.645	33.36978
436.856	-63.56133
437.068	-59.34802
437.28	-21.42373
437.491	10.18593
437.703	-17.20943
437.915	67.09678
438.126	3.86356
438.338	-25.63794
438.55	3.86356
438.761	46.01671
438.973	18.61609
439.184	-0.35123
439.396	52.34049
439.608	-59.34802
439.819	-12.99502
440.031	29.15432
440.242	67.09678
440.454	56.55646
440.665	10.18593
440.877	79.74592
441.088	14.40096
441.3	64.98867
441.511	-10.88778
441.723	10.18593
441.934	8.07845
442.146	-23.53085
442.357	5.97099
442.569	5.97099
442.78	-34.06606
442.991	-31.95906
443.203	24.93896
443.414	86.0708
443.626	8.07845
443.837	58.66448
444.048	71.31307
444.26	-0.35123
444.471	12.29343
444.682	18.61609
444.894	77.63768
445.105	86.0708
445.316	54.44846
445.528	41.80097
445.739	10.18593
445.95	-8.78052
446.161	-38.27997
446.373	71.31307
446.584	5.97099
446.795	1.75615
447.006	41.80097
447.217	18.61609
447.429	71.31307
447.64	-25.63794
447.851	58.66448
448.062	33.36978
448.273	-4.56592
448.484	33.36978
448.695	107.15516
448.907	1.75615
449.118	-8.78052
449.329	-0.35123
449.54	-6.67324
449.751	35.47754
449.962	-21.42373
450.173	18.61609
450.384	8.07845
450.595	41.80097
450.806	22.83131
451.017	-4.56592
451.228	41.80097
451.439	41.80097
451.65	33.36978
451.861	20.72369
452.072	16.50851
452.283	-17.20943
452.494	16.50851
452.705	24.93896
452.915	37.58533
453.126	20.72369
453.337	-25.63794
453.548	37.58533
453.759	-8.78052
453.97	18.61609
454.181	46.01671
454.391	41.80097
454.602	105.04662
454.813	-12.99502
455.024	18.61609
455.235	24.93896
455.445	39.69314
455.656	-25.63794
455.867	-29.85205
456.078	43.90883
456.288	10.18593
456.499	71.31307
456.71	27.04663
456.921	41.80097
457.131	43.90883
457.342	96.6127
457.553	-17.20943
457.763	-12.99502
457.974	-31.95906
458.184	-6.67324
458.395	-46.70749
458.606	-4.56592
458.816	35.47754
459.027	8.07845
459.237	58.66448
459.448	-0.35123
459.659	54.44846
459.869	43.90883
460.08	14.40096
460.29	16.50851
460.501	-8.78052
460.711	12.29343
460.922	67.09678
461.132	86.0708
461.343	105.04662
461.553	54.44846
461.764	88.17913
461.974	67.09678
462.184	-6.67324
462.395	16.50851
462.605	12.29343
462.816	33.36978
463.026	67.09678
463.236	50.23254
463.447	-0.35123
463.657	-0.35123
463.867	41.80097
464.078	37.58533
464.288	-25.63794
464.498	69.20492
464.709	37.58533
464.919	50.23254
465.129	46.01671
465.339	8.07845
465.55	54.44846
465.76	71.31307
465.97	60.77252
466.18	18.61609
466.391	62.88058
466.601	67.09678
466.811	58.66448
467.021	58.66448
467.231	75.52945
467.441	52.34049
467.651	79.74592
467.862	79.74592
468.072	86.0708
468.282	24.93896
468.492	-25.63794
468.702	-34.06606
468.912	88.17913
469.122	37.58533
469.332	105.04662
469.542	60.77252
469.752	109.26371
469.962	18.61609
470.172	35.47754
470.382	43.90883
470.592	69.20492
470.802	31.26204
471.012	52.34049
471.222	75.52945
471.432	73.42125
471.642	71.31307
471.852	54.44846
472.062	43.90883
472.272	134.5681
472.482	100.82962
472.691	83.96248
472.901	111.37229
473.111	69.20492
473.321	115.58952
473.531	67.09678
473.741	100.82962
473.95	83.96248
474.16	92.39587
474.37	77.63768
474.58	126.13296
474.79	136.67694
474.999	109.26371
475.209	86.0708
475.419	119.80683
475.628	185.18606
475.838	147.22146
476.048	88.17913
476.258	50.23254
476.467	187.2954
476.677	157.7665
476.886	176.7489
477.096	88.17913
477.306	119.80683
477.515	185.18606
477.725	202.06136
477.935	227.37671
478.144	124.02423
478.354	204.17086
478.563	210.49949
478.773	229.48645
478.982	273.79547
479.192	263.24494
479.401	254.80485
479.611	164.09378
479.82	330.77629
480.03	223.15728
480.239	294.89792
480.449	269.5752
480.658	326.55503
480.868	303.33942
481.077	391.99222
481.287	320.22329
481.496	347.662
481.705	379.32569
481.915	396.21454
482.124	248.47499
482.333	381.43673
482.543	294.89792
482.752	421.54978
482.961	286.45672
483.171	410.99314
483.38	491.23337
483.589	531.3616
483.799	421.54978
484.008	541.92251
484.217	550.37148
484.426	489.12151
484.636	495.45715
484.845	506.01685
485.054	510.24083
485.263	548.25922
485.472	531.3616
485.682	632.76015
485.891	584.16957
486.1	691.92262
486.309	539.8103
486.518	643.32419
486.727	590.50708
486.936	685.58335
487.146	592.61962
487.355	658.11436
487.564	643.32419
487.773	818.72815
487.982	691.92262
488.191	793.36416
488.4	725.73377
488.609	719.39397
488.818	835.63822
489.027	831.41065
489.236	814.50072
489.445	960.36649
489.654	837.75202
489.863	989.96684
490.072	901.16997
490.281	987.85249
490.49	970.93789
490.698	992.08121
490.907	987.85249
491.116	1044.94226
491.325	1002.65311
491.534	1137.98605
491.743	1099.92152
491.952	1102.03617
492.16	1102.03617
492.369	1182.39643
492.578	1133.75658
492.787	1148.55979
492.996	1157.01885
493.204	1288.14145
493.413	1275.45168
493.622	1381.20175
493.831	1195.08542
494.039	1410.81234
494.248	1410.81234
494.457	1470.03377
494.665	1470.03377
494.874	1563.09543
495.083	1328.3262
495.291	1571.55548
495.5	1404.4672
495.709	1552.52034
495.917	1495.41436
496.126	1463.68862
496.335	1444.65315
496.543	1514.44976
496.752	1444.65315
496.96	1615.9703
497.169	1647.69462
497.377	1624.43017
497.586	1666.72896
497.794	1641.3498
498.003	1666.72896
498.211	1918.37775
498.42	1702.6821
498.628	1723.83059
498.837	1721.71575
499.045	1776.70029
499.254	1732.28989
499.462	1928.94978
499.671	1954.32206
499.879	2066.37212
500.087	1897.23328
500.296	2117.10535
500.504	1990.26464
500.713	2047.34608
500.921	2038.88988
501.129	2036.77582
501.338	1850.7136
501.546	2055.80217
501.754	1857.05733
501.962	2123.4467
502.171	1954.32206
502.379	2334.78157
502.587	2057.91618
502.795	2345.34591
503.004	2072.71401
503.212	2313.65216
503.42	2345.34591
503.628	2273.50366
503.837	2286.1825
504.045	2343.23306
504.253	2284.06939
504.461	2505.89194
504.669	2328.44285
504.877	2478.43453
505.085	2440.4135
505.294	2560.80095
505.502	2417.1767
505.71	2651.59435
505.918	2421.40167
506.126	2752.91763
506.334	2573.47114
506.542	2731.81109
506.75	2461.53674
506.958	2624.14757
507.166	2603.03324
507.374	2725.47887
507.582	2645.26067
507.79	2750.80704
507.998	2609.36767
508.206	2681.15005
508.414	2638.92687
508.622	2780.35413
508.83	2609.36767
509.037	2746.58581
509.245	2626.25894
509.453	2966.01603
509.661	2816.22916
509.869	2984.99784
510.077	2750.80704
510.285	2919.611
510.492	2788.79567
510.7	3014.52266
510.908	2890.07683
511.116	3025.06651
511.324	2961.79769
511.531	3109.4034
511.739	2913.28249
511.947	3088.32153
512.155	2976.56163
512.362	3063.02121
512.57	3155.7779
512.778	3244.28914
512.985	3269.57267
513.193	3303.28027
513.401	3063.02121
513.608	3084.10497
513.816	3119.94374
514.024	3254.82424
514.231	3193.71484
514.439	3084.10497
514.646	3010.30501
514.854	3383.31816
515.061	2976.56163
515.269	3524.37542
515.477	3212.68132
515.684	3307.49341
515.892	3414.90512
516.099	3499.11739
516.307	3303.28027
516.514	3532.79418
516.722	3454.90953
516.929	3604.34169
517.136	3459.12015
517.344	3720.03428
517.551	3398.05924
517.759	3720.03428
517.966	3623.27713
518.173	3724.24019
518.381	3665.35041
518.588	3781.01243
518.796	3558.04869
519.003	3886.1084
519.21	3501.22232
519.418	3953.34362
519.625	3715.82828
519.832	3936.53675
520.039	3757.88471
520.247	3976.45094
520.454	3867.19478
520.661	4005.8567
520.868	3564.3619
521.076	4026.85834
521.283	3976.45094
521.49	3980.65201
521.697	3905.02039
521.904	4138.13254
522.112	3917.62748
522.319	4245.1521
522.526	3829.36272
522.733	4054.15741
522.94	4079.35345
523.147	4161.21984
523.354	4031.05843
523.561	4259.83674
523.768	4096.14914
523.975	4452.73676
524.183	4178.009
524.39	4471.59751
524.597	4222.07411
524.804	4567.969
525.011	4222.07411
525.218	4465.31079
525.425	4322.75905
525.632	4431.77828
525.838	4496.7424
526.045	4341.63196
526.252	4402.43274
526.459	4549.11739
526.666	4551.2121
526.873	4672.66723
527.08	4488.36112
527.287	4693.60015
527.494	4291.30031
527.701	4814.96655
527.907	4628.70078
528.114	4825.4256
528.321	4731.27373
528.528	4798.23089
528.735	4879.80345
528.941	4865.16477
529.148	4645.45107
529.355	4720.80958
529.562	4622.41906
529.768	4781.49378
529.975	4722.90246
530.182	4877.71228
530.388	4741.73732
530.595	4990.60264
530.802	4750.10778
531.008	5109.69176
531.215	4982.24269
531.422	5074.18182
531.628	5009.41118
531.835	5182.77932
532.042	5141.01849
532.248	5353.90113
532.455	5186.95489
532.661	5201.56866
532.868	5157.72394
533.074	5113.86896
533.281	5057.46895
533.487	5451.91211
533.694	5036.57577
533.9	5608.20499
534.107	5153.54772
534.313	5566.53985
534.52	5385.18686
534.726	5247.49019
534.933	5266.27301
535.139	5418.55249
535.345	5410.21165
535.552	5547.78746
535.758	5433.14807
535.965	5656.10825
536.171	5556.12209
536.377	5662.35558
536.584	5483.18128
536.79	5737.30699
536.996	5476.92787
537.203	5591.54007
537.409	5418.55249
537.615	5810.14709
537.821	5672.76733
538.028	5905.83582
538.234	5543.62
538.44	5868.39835
538.646	5758.12139
538.853	5824.71164
539.059	5916.23376
539.265	5764.36526
539.471	5820.55045
539.677	5941.18641
539.883	5945.34486
540.09	6007.71022
540.296	5907.91545
540.502	6072.13216
540.708	5924.55169
540.914	5968.21462
541.12	6038.88495
541.326	6263.18684
541.532	6182.22053
541.738	6202.98452
541.944	6165.60765
542.15	6175.99088
542.356	6269.41354
542.562	6400.12569
542.768	6140.6855
542.974	6456.11684
543.18	6256.95993
543.386	6395.97752
543.592	6308.84443
543.798	6435.38136
544.004	6574.26481
544.21	6555.61487
544.415	6431.23398
544.621	6400.12569
544.827	6427.08651
545.033	6605.34389
545.239	6543.18054
545.445	6727.53795
545.651	6385.60669
545.856	6785.50041
546.062	6739.95999
546.268	6623.98884
546.474	6534.89052
546.679	6433.30768
546.885	6495.50787
547.091	6758.5915
547.297	6665.41538
547.502	6814.47492
547.708	6630.20341
547.914	6630.20341
548.119	6764.80159
548.325	6762.73158
548.531	6729.60835
548.736	7089.51117
548.942	6731.67872
549.147	6936.53279
549.353	6919.9872
549.559	6913.78223
549.764	6907.57705
549.97	6878.61687
550.175	6795.84896
550.381	6969.61964
550.586	6872.41054
550.792	7010.97008
550.997	7085.37824
551.203	7060.57875
551.408	7143.2312
551.614	7390.97592
551.819	7126.70357
552.025	7318.74975
552.23	6946.87305
552.435	7415.73303
552.641	7287.78747
552.846	7423.98471
553.052	7322.87768
553.257	7386.84943
553.462	7541.53347
553.668	7324.94162
553.873	7234.10779
554.078	7434.29881
554.283	7310.49363
554.489	7380.65954
554.694	7320.81373
554.899	7419.85892
555.105	7525.03962
555.31	7541.53347
555.515	7689.91659
555.72	7599.25114
555.925	7533.28672
556.131	7566.27167
556.336	7452.86284
556.541	7691.9767
556.746	7357.96157
556.951	7465.23788
557.156	7659.01253
557.361	7675.49529
557.567	7564.21027
557.772	7642.52841
557.977	7621.92136
558.182	7626.04294
558.387	7642.52841
558.592	7805.24991
558.797	7603.37319
559.002	7819.66196
559.207	7786.71863
559.412	7823.7795
559.617	7654.89163
559.822	7731.11462
560.027	7897.88105
560.232	7936.97941
560.437	7799.073
560.642	7897.88105
560.847	8008.98333
561.051	8206.35255
561.256	7807.30883
561.461	8115.91463
561.666	7945.20969
561.871	8206.35255
562.076	7840.24883
562.281	7980.18476
562.485	7873.18351
562.69	7984.29909
562.895	7844.36596
563.1	7967.8413
563.305	7916.40225
563.509	8255.66612
563.714	8027.49459
563.919	8091.24302
564.123	8126.19362
564.328	8214.57227
564.533	8113.85878
564.737	8325.50759
564.942	8115.91463
565.147	8387.11369
565.351	8259.77507
565.556	8471.28058
565.761	8389.16693
565.965	8707.18837
566.17	8348.09853
566.374	8167.30455
566.579	8383.00716
566.784	8512.32592
566.988	8200.18756
567.193	8510.27383
567.397	8270.0471
567.602	8389.16693
567.806	8159.083
568.011	8657.97586
568.215	8563.62192
568.42	8559.51867
568.624	8557.46702
568.828	8573.8797
569.033	8551.31195
569.237	8563.62192
569.442	8399.43282
569.646	8380.95387
569.85	8434.33324
570.055	8817.87784
570.259	8378.90055
570.463	8762.53976
570.668	8651.82354
570.872	8651.82354
571.076	8631.31462
571.281	9022.71971
571.485	8912.1272
571.689	8946.94892
571.893	8846.56645
572.098	9012.48182
572.302	8830.17339
572.506	8891.64144
572.71	8727.69044
572.914	9229.4326
573.119	9067.76124
573.323	8871.15388
573.527	8834.27176
573.731	9143.49403
573.935	9035.0046
574.139	9133.26124
574.343	9186.46706
574.547	9098.46657
574.751	8996.10028
574.955	9010.43419
575.159	8830.17339
575.364	9335.79163
575.568	9170.09726
575.772	9272.39071
575.976	9192.60545
576.18	9059.5725
576.383	9270.34526
576.587	9591.28147
576.791	9370.55312
