Data from mixed_try6.1_USB4F045381__30__00314.txt Node

Date: Thu Apr 03 20:34:25 EDT 2025
User: mmckonesweet
Spectrometer: USB4F04538
Trigger mode: 4
Integration Time (sec): 2.700000E-3
Scans to average: 1
Electric dark correction enabled: true
Nonlinearity correction enabled: true
Boxcar width: 0
XAxis mode: Wavelengths
Number of Pixels in Spectrum: 3648
>>>>>Begin Spectral Data<<<<<
345.52	-35.99745
345.736	-35.99745
345.952	-35.99745
346.168	-17.03383
346.384	4.03918
346.6	4.03918
346.816	1.93177
347.032	-6.49763
347.248	-44.42508
347.464	-0.17561
347.68	8.25407
347.896	48.30027
348.112	39.86879
348.328	12.46906
348.544	31.43768
348.76	-27.56942
348.975	-67.59898
349.191	-23.35526
349.407	31.43768
349.623	-63.38577
349.839	48.30027
350.055	-21.24814
350.27	6.14661
350.486	-6.49763
350.702	-2.28298
350.918	39.86879
351.133	-6.49763
351.349	-27.56942
351.565	6.14661
351.781	-21.24814
351.996	8.25407
352.212	-33.89048
352.428	-8.60492
352.644	-27.56942
352.859	-33.89048
353.075	-78.13156
353.291	-35.99745
353.506	-57.06577
353.722	-29.67646
353.938	-17.03383
354.153	25.11459
354.369	27.22227
354.584	-33.89048
354.8	-2.28298
355.016	31.43768
355.231	-33.89048
355.447	-25.46235
355.662	-35.99745
355.878	-10.71218
356.093	12.46906
356.309	14.57659
356.524	-44.42508
356.74	-19.141
356.955	-10.71218
357.171	-8.60492
357.386	-21.24814
357.602	-29.67646
357.817	12.46906
358.033	12.46906
358.248	-2.28298
358.464	25.11459
358.679	-42.31821
358.895	-12.81942
359.11	8.25407
359.325	14.57659
359.541	20.89932
359.756	-8.60492
359.972	23.00695
360.187	27.22227
360.402	-10.71218
360.618	8.25407
360.833	-6.49763
361.048	37.76098
361.264	-48.63874
361.479	-90.7698
361.694	-23.35526
361.909	-4.39031
362.125	58.84015
362.34	23.00695
362.555	-23.35526
362.77	8.25407
362.986	-31.78348
363.201	-67.59898
363.416	39.86879
363.631	31.43768
363.847	33.54542
364.062	-35.99745
364.277	-21.24814
364.492	-29.67646
364.707	16.68414
364.922	-61.27913
365.138	-2.28298
365.353	-25.46235
365.568	-42.31821
365.783	14.57659
365.998	-73.91861
366.213	-52.8523
366.428	14.57659
366.643	8.25407
366.858	8.25407
367.073	16.68414
367.288	23.00695
367.503	-17.03383
367.718	6.14661
367.933	-19.141
368.148	-2.28298
368.363	1.93177
368.578	-27.56942
368.793	-27.56942
369.008	-65.49239
369.223	-44.42508
369.438	-8.60492
369.653	-76.0251
369.868	-27.56942
370.083	14.57659
370.298	-8.60492
370.513	23.00695
370.728	-2.28298
370.943	60.94819
371.157	23.00695
371.372	23.00695
371.587	10.36155
371.802	1.93177
372.017	-42.31821
372.232	-99.19478
372.446	16.68414
372.661	-103.40711
372.876	20.89932
373.091	-33.89048
373.306	-6.49763
373.52	-59.17246
373.735	-61.27913
373.95	69.38059
374.165	58.84015
374.379	-40.21131
374.594	14.57659
374.809	-27.56942
375.023	14.57659
375.238	1.93177
375.453	-23.35526
375.667	33.54542
375.882	-2.28298
376.097	6.14661
376.311	-2.28298
376.526	-25.46235
376.741	-10.71218
376.955	6.14661
377.17	-0.17561
377.384	-14.92664
377.599	-6.49763
377.813	18.79172
378.028	8.25407
378.242	37.76098
378.457	-44.42508
378.672	-25.46235
378.886	-19.141
379.101	33.54542
379.315	-19.141
379.53	58.84015
379.744	-78.13156
379.958	-25.46235
380.173	-33.89048
380.387	-27.56942
380.602	-124.46718
380.816	23.00695
381.031	-2.28298
381.245	-31.78348
381.459	4.03918
381.674	-76.0251
381.888	33.54542
382.103	50.4082
382.317	14.57659
382.531	25.11459
382.746	-10.71218
382.96	27.22227
383.174	-101.30096
383.388	65.16435
383.603	35.65319
383.817	-25.46235
384.031	-19.141
384.246	-19.141
384.46	-27.56942
384.674	-40.21131
384.888	-2.28298
385.103	65.16435
385.317	-73.91861
385.531	-35.99745
385.745	-29.67646
385.959	39.86879
386.174	6.14661
386.388	-76.0251
386.602	10.36155
386.816	14.57659
387.03	14.57659
387.244	-19.141
387.458	14.57659
387.672	4.03918
387.887	-54.95905
388.101	-25.46235
388.315	18.79172
388.529	-35.99745
388.743	-35.99745
388.957	41.97663
389.171	-40.21131
389.385	73.59693
389.599	6.14661
389.813	39.86879
390.027	35.65319
390.241	50.4082
390.455	-25.46235
390.669	14.57659
390.883	-54.95905
391.097	-33.89048
391.311	-42.31821
391.525	-25.46235
391.738	20.89932
391.952	-10.71218
392.166	23.00695
392.38	10.36155
392.594	-4.39031
392.808	60.94819
393.022	-42.31821
393.236	31.43768
393.449	-42.31821
393.663	31.43768
393.877	16.68414
394.091	-6.49763
394.305	-25.46235
394.518	-31.78348
394.732	-2.28298
394.946	14.57659
395.16	46.19237
395.373	1.93177
395.587	-27.56942
395.801	-21.24814
396.015	-27.56942
396.228	-27.56942
396.442	-14.92664
396.656	1.93177
396.869	4.03918
397.083	14.57659
397.297	-23.35526
397.51	20.89932
397.724	-25.46235
397.938	25.11459
398.151	-67.59898
398.365	18.79172
398.578	48.30027
398.792	41.97663
399.005	-52.8523
399.219	56.73213
399.433	-14.92664
399.646	6.14661
399.86	-33.89048
400.073	-25.46235
400.287	-40.21131
400.5	-48.63874
400.714	16.68414
400.927	-14.92664
401.141	-44.42508
401.354	6.14661
401.567	33.54542
401.781	6.14661
401.994	6.14661
402.208	109.43943
402.421	37.76098
402.635	-6.49763
402.848	-48.63874
403.061	-38.10439
403.275	-35.99745
403.488	-33.89048
403.701	-35.99745
403.915	-6.49763
404.128	35.65319
404.341	6.14661
404.555	31.43768
404.768	-25.46235
404.981	25.11459
405.195	-19.141
405.408	98.89685
405.621	14.57659
405.834	58.84015
406.048	141.07043
406.261	10.36155
406.474	-2.28298
406.687	6.14661
406.9	-8.60492
407.114	12.46906
407.327	6.14661
407.54	-73.91861
407.753	-2.28298
407.966	-57.06577
408.179	10.36155
408.392	1.93177
408.605	39.86879
408.819	-2.28298
409.032	-27.56942
409.245	10.36155
409.458	-4.39031
409.671	-25.46235
409.884	-6.49763
410.097	-0.17561
410.31	-6.49763
410.523	-6.49763
410.736	16.68414
410.949	6.14661
411.162	20.89932
411.375	-2.28298
411.588	111.54801
411.801	-25.46235
412.014	14.57659
412.227	-48.63874
412.44	31.43768
412.653	39.86879
412.865	-2.28298
413.078	1.93177
413.291	16.68414
413.504	6.14661
413.717	8.25407
413.93	48.30027
414.143	23.00695
414.356	-10.71218
414.568	-61.27913
414.781	-12.81942
414.994	23.00695
415.207	25.11459
415.42	-86.55716
415.632	-19.141
415.845	-12.81942
416.058	20.89932
416.271	-50.74553
416.483	41.97663
416.696	73.59693
416.909	-14.92664
417.121	33.54542
417.334	31.43768
417.547	48.30027
417.759	60.94819
417.972	39.86879
418.185	-35.99745
418.397	-23.35526
418.61	75.70514
418.823	-40.21131
419.035	-35.99745
419.248	-67.59898
419.46	69.38059
419.673	41.97663
419.885	12.46906
420.098	-59.17246
420.311	-10.71218
420.523	14.57659
420.736	-42.31821
420.948	-19.141
421.161	63.05626
421.373	-25.46235
421.586	44.08449
421.798	-27.56942
422.01	41.97663
422.223	44.08449
422.435	-19.141
422.648	39.86879
422.86	25.11459
423.073	-14.92664
423.285	6.14661
423.497	-19.141
423.71	-44.42508
423.922	-31.78348
424.134	-76.0251
424.347	-4.39031
424.559	25.11459
424.771	-35.99745
424.984	-19.141
425.196	-40.21131
425.408	-8.60492
425.621	90.46319
425.833	-2.28298
426.045	-21.24814
426.257	-61.27913
426.47	48.30027
426.682	16.68414
426.894	-40.21131
427.106	71.48875
427.318	-4.39031
427.531	-27.56942
427.743	71.48875
427.955	-4.39031
428.167	-50.74553
428.379	25.11459
428.591	-52.8523
428.804	-52.8523
429.016	8.25407
429.228	6.14661
429.44	14.57659
429.652	-35.99745
429.864	-33.89048
430.076	33.54542
430.288	23.00695
430.5	-10.71218
430.712	-23.35526
430.924	14.57659
431.136	1.93177
431.348	-63.38577
431.56	37.76098
431.772	23.00695
431.984	-8.60492
432.196	-8.60492
432.408	-2.28298
432.62	52.51615
432.832	-25.46235
433.044	-48.63874
433.256	52.51615
433.468	-38.10439
433.679	54.62413
433.891	48.30027
434.103	82.02988
434.315	-54.95905
434.527	1.93177
434.739	14.57659
434.95	16.68414
435.162	111.54801
435.374	60.94819
435.586	1.93177
435.798	18.79172
436.009	-2.28298
436.221	37.76098
436.433	48.30027
436.645	-42.31821
436.856	6.14661
437.068	33.54542
437.28	-48.63874
437.491	14.57659
437.703	20.89932
437.915	77.81336
438.126	23.00695
438.338	96.7884
438.55	82.02988
438.761	-8.60492
438.973	-63.38577
439.184	-10.71218
439.396	35.65319
439.608	-10.71218
439.819	14.57659
440.031	46.19237
440.242	-2.28298
440.454	12.46906
440.665	1.93177
440.877	94.67998
441.088	6.14661
441.3	23.00695
441.511	58.84015
441.723	14.57659
441.934	-35.99745
442.146	-42.31821
442.357	10.36155
442.569	14.57659
442.78	6.14661
442.991	31.43768
443.203	-17.03383
443.414	18.79172
443.626	115.76524
443.837	-2.28298
444.048	6.14661
444.26	50.4082
444.471	10.36155
444.682	50.4082
444.894	-2.28298
445.105	75.70514
445.316	-78.13156
445.528	-109.72541
445.739	14.57659
445.95	56.73213
446.161	-25.46235
446.373	10.36155
446.584	33.54542
446.795	52.51615
447.006	126.30869
447.217	6.14661
447.429	14.57659
447.64	25.11459
447.851	39.86879
448.062	48.30027
448.273	71.48875
448.484	-2.28298
448.695	65.16435
448.907	92.57157
449.118	73.59693
449.329	60.94819
449.54	27.22227
449.751	-44.42508
449.962	50.4082
450.173	25.11459
450.384	-23.35526
450.595	50.4082
450.806	35.65319
451.017	-2.28298
451.228	-4.39031
451.439	86.24649
451.65	50.4082
451.861	27.22227
452.072	27.22227
452.283	58.84015
452.494	1.93177
452.705	1.93177
452.915	-27.56942
453.126	27.22227
453.337	41.97663
453.548	58.84015
453.759	44.08449
453.97	56.73213
454.181	35.65319
454.391	-33.89048
454.602	10.36155
454.813	23.00695
455.024	67.27246
455.235	65.16435
455.445	-17.03383
455.656	14.57659
455.867	35.65319
456.078	-23.35526
456.288	103.11382
456.499	23.00695
456.71	75.70514
456.921	-103.40711
457.131	82.02988
457.342	77.81336
457.553	35.65319
457.763	20.89932
457.974	48.30027
458.184	124.19996
458.395	16.68414
458.606	50.4082
458.816	109.43943
459.027	94.67998
459.237	25.11459
459.448	-19.141
459.659	90.46319
459.869	39.86879
460.08	73.59693
460.29	25.11459
460.501	92.57157
460.711	69.38059
460.922	79.92161
461.132	145.28826
461.343	67.27246
461.553	31.43768
461.764	73.59693
461.974	-2.28298
462.184	35.65319
462.395	130.52622
462.605	98.89685
462.816	166.37868
463.026	115.76524
463.236	65.16435
463.447	88.35483
463.657	166.37868
463.867	149.50617
464.078	128.41744
464.288	82.02988
464.498	132.63502
464.709	109.43943
464.919	109.43943
465.129	77.81336
465.339	141.07043
465.55	82.02988
465.76	153.72418
465.97	35.65319
466.18	109.43943
466.391	117.87389
466.601	119.98255
466.811	195.90876
467.021	115.76524
467.231	92.57157
467.441	107.33087
467.651	141.07043
467.862	86.24649
468.072	115.76524
468.282	174.81543
468.492	210.67529
468.702	183.25252
468.912	200.12766
469.122	132.63502
469.332	141.07043
469.542	242.32113
469.752	174.81543
469.962	149.50617
470.172	176.92467
470.382	240.21127
470.592	219.11374
470.802	191.68993
471.012	149.50617
471.222	267.64093
471.432	252.87071
471.642	212.78487
471.852	269.75104
472.062	328.84154
472.272	309.84661
472.482	352.0595
472.691	309.84661
472.901	335.1735
473.111	280.30186
473.321	212.78487
473.531	360.50292
473.741	328.84154
473.95	402.72406
474.16	385.8348
474.37	392.16815
474.58	299.2945
474.79	411.16909
474.999	387.9459
475.209	512.52884
475.419	428.0599
475.628	501.96892
475.838	394.2793
476.048	525.20123
476.258	387.9459
476.467	622.37247
476.677	565.33375
476.886	626.59793
477.096	654.06461
477.306	613.9217
477.515	529.42547
477.725	594.90821
477.935	706.89075
478.144	643.50026
478.354	639.27461
478.563	702.6644
478.773	770.29117
478.982	747.04326
479.192	719.57007
479.401	825.2455
479.611	835.81437
479.82	801.99481
480.03	888.66195
480.239	954.19992
480.449	909.80243
480.658	1104.32706
480.868	1070.49307
481.077	1087.4099
481.287	1026.08805
481.496	1104.32706
481.705	1007.05811
481.915	1273.51298
482.124	1205.83591
482.333	1275.62793
482.543	1275.62793
482.752	1267.16813
482.961	1243.9039
483.171	1349.65257
483.38	1332.73246
483.589	1497.70566
483.799	1514.62601
484.008	1506.16584
484.217	1461.74982
484.426	1620.37648
484.636	1529.43128
484.845	1764.188
485.054	1474.44013
485.263	1757.8437
485.472	1721.89199
485.682	1728.23648
485.891	1664.79029
486.1	1597.11172
486.309	1859.34812
486.518	1958.72688
486.727	1743.04018
486.936	2036.95199
487.146	1861.46268
487.355	2039.06605
487.564	1943.92658
487.773	2083.45983
487.982	1943.92658
488.191	2332.84475
488.4	2127.85038
488.609	2347.63481
488.818	2220.84775
489.027	2400.45246
489.236	2491.28343
489.445	2544.08269
489.654	2222.96114
489.863	2693.99192
490.072	2398.33988
490.281	2575.75877
490.49	2499.73179
490.698	2672.88174
490.907	2668.65955
491.116	2926.11516
491.325	2729.87626
491.534	2803.74369
491.743	2791.08188
491.952	2845.94613
492.16	2856.49587
492.369	3048.43736
492.578	2909.2392
492.787	3002.04527
492.996	2913.45828
493.204	2993.60955
493.413	3092.71372
493.622	3335.05269
493.831	3198.10535
494.039	3370.85777
494.248	3286.60258
494.457	3455.08498
494.665	3259.21374
494.874	3436.13633
495.083	3250.78583
495.291	3351.90277
495.5	3286.60258
495.709	3615.03689
495.917	3271.8551
496.126	3425.60869
496.335	3562.43288
496.543	3781.18763
496.752	3562.43288
496.96	3690.766
497.169	3724.41543
497.377	3554.01516
497.586	3734.92987
497.794	3999.73083
498.003	3554.01516
498.211	4008.13197
498.42	3825.33393
498.628	4027.03335
498.837	4090.02587
499.045	3871.57308
499.254	3898.89168
499.462	4094.2247
499.671	4169.78948
499.879	4293.57249
500.087	3997.63049
500.296	4419.37682
500.504	4081.62794
500.713	4308.25368
500.921	4251.62046
501.129	4201.26675
501.338	4077.42886
501.546	4574.427
501.754	4329.22497
501.962	4440.33659
502.171	4511.58339
502.379	4654.00015
502.587	4387.93306
502.795	4633.06298
503.004	4599.55885
503.212	4601.65302
503.42	4674.93507
503.628	4790.03686
503.837	4720.98399
504.045	4704.24019
504.253	4645.62555
504.461	5030.48149
504.669	4750.28216
504.877	4963.60564
505.085	4831.87506
505.294	4923.88695
505.502	4917.61482
505.71	4997.04652
505.918	4856.9736
506.126	5137.01592
506.334	5063.91054
506.542	5199.65501
506.75	5095.2449
506.958	5191.30435
507.166	4988.68685
507.374	5007.49558
507.582	5226.79211
507.79	5111.95442
507.998	5358.24668
508.206	5377.01832
508.414	5256.01226
508.622	5278.96774
508.83	5414.55589
509.037	5543.79364
509.245	5256.01226
509.453	5458.34009
509.661	5356.16083
509.869	5622.95914
510.077	5422.89653
510.285	5572.96384
510.492	5510.45063
510.7	5683.352
510.908	5631.29037
511.116	5658.36426
511.324	5752.05077
511.531	5866.4916
511.739	5625.04198
511.947	5658.36426
512.155	5689.5984
512.362	5964.22994
512.57	5697.92661
512.778	5949.67647
512.985	5670.85855
513.193	6051.52653
513.401	6122.16478
513.608	6039.05813
513.816	6074.38305
514.024	5851.93037
514.231	5935.12184
514.439	6080.61616
514.646	6051.52653
514.854	6122.16478
515.061	6063.99408
515.269	6055.68247
515.477	6369.18502
515.684	6242.60263
515.892	6188.62301
516.099	6570.29322
516.307	6111.7785
516.514	6487.38848
516.722	6452.14272
516.929	6362.96169
517.136	6396.15036
517.344	6634.51896
517.551	6292.41592
517.759	6472.87633
517.966	6410.66853
518.173	6450.06923
518.381	6831.20221
518.588	6636.59039
518.796	6628.30453
519.003	6682.156
519.21	6503.97239
519.418	6882.92671
519.625	6702.86396
519.832	6713.21708
520.039	6547.49811
520.247	6781.53331
520.454	6744.273
520.661	7025.61288
520.868	6874.65174
521.076	6951.18133
521.283	6816.71681
521.49	6938.77323
521.697	6924.29609
521.904	7002.873
522.112	6762.90408
522.319	7238.40959
522.526	6955.31718
522.733	7339.56051
522.94	7250.79826
523.147	7100.01531
523.354	7300.34499
523.561	7312.72969
523.768	7240.47442
523.975	7514.9021
524.183	7254.92764
524.39	7483.97083
524.597	7432.40794
524.804	7599.42289
525.011	7238.40959
525.218	7539.64362
525.425	7712.74821
525.632	7702.44855
525.838	7481.90858
526.045	7669.48611
526.252	7558.19773
526.459	7628.27543
526.666	7578.81138
526.873	7793.0675
527.08	7720.98755
527.287	7900.11054
527.494	7926.86256
527.701	7943.32362
527.907	7863.06352
528.114	7801.30357
528.321	8056.45798
528.528	8089.35827
528.735	8114.0301
528.941	8062.62717
529.148	7762.17924
529.355	7984.47052
529.562	7702.44855
529.768	8151.03243
529.975	7963.89809
530.182	8114.0301
530.388	8021.49575
530.595	8192.13854
530.802	8179.80754
531.008	8641.74022
531.215	8485.81834
531.422	8428.34582
531.628	8399.60391
531.835	8520.70507
532.042	8142.81025
532.248	8734.01154
532.455	8615.07707
532.661	8797.55459
532.868	8155.1434
533.074	8528.91292
533.281	8608.92358
533.487	8801.65354
533.694	8672.50149
533.9	9082.26147
534.107	8701.20825
534.313	8957.3603
534.52	8668.40023
534.726	9108.87138
534.933	8473.50406
535.139	8738.11162
535.345	8844.68814
535.552	9049.50679
535.758	9196.86813
535.965	9041.31742
536.171	8979.88828
536.377	9049.50679
536.584	8961.45645
536.79	9162.08249
536.996	9299.15057
537.203	9045.41214
537.409	9143.66457
537.615	9313.46678
537.821	8928.68523
538.028	9331.87214
538.234	9168.22149
538.44	9237.78615
538.646	9342.09676
538.853	9403.43586
539.059	9327.78218
539.265	9313.46678
539.471	9581.23692
539.677	9370.72351
539.883	9575.10786
540.09	9654.77471
540.296	9464.76029
540.502	9568.97865
540.708	9499.50435
540.914	9965.04983
541.12	9763.00221
541.326	9720.12476
541.532	9926.28423
541.738	9816.07934
541.944	9773.21014
542.15	9785.45916
542.356	9777.29321
542.562	9977.29051
542.768	9683.3673
542.974	10052.76327
543.18	9803.83167
543.386	10175.11035
543.592	9785.45916
543.798	10193.45809
544.004	9932.40546
544.21	10299.44561
544.415	10209.76626
544.621	10566.29415
544.827	10138.41151
545.033	10219.95842
545.239	10490.94714
545.445	10330.01216
545.651	10268.87604
545.856	10468.54332
546.062	10574.43873
546.268	10456.3224
546.474	10242.37997
546.679	10270.91411
546.885	10437.99015
547.091	10550.00436
547.297	10277.02822
547.502	10446.13795
547.708	10507.23985
547.914	10470.58009
548.119	10474.65361
548.325	10625.33791
548.531	10476.69034
548.736	10753.56988
548.942	10645.69541
549.147	10311.67259
549.353	10452.24866
549.559	10796.30328
549.764	10706.7606
549.97	10847.16962
550.175	10836.99694
550.381	11024.1286
550.586	11158.31743
550.792	11371.7053
550.997	11083.09617
551.203	11150.18611
551.408	11123.75813
551.614	11038.363
551.819	11186.77573
552.025	11270.10612
552.23	10975.32085
552.435	11099.36147
552.641	11371.7053
552.846	11392.02214
553.052	11259.9448
553.257	11414.36952
553.462	11422.49555
553.668	11320.90885
553.873	11584.9839
554.078	11599.19877
554.283	11414.36952
554.489	11654.02337
554.694	11479.3734
554.899	11519.99584
555.105	11625.59663
555.31	11698.6904
555.515	11515.93376
555.72	11676.35742
555.925	11491.56053
556.131	11666.20572
556.336	11751.47317
556.541	11741.32309
556.746	11599.19877
556.951	11820.48792
557.156	11747.41316
557.361	11952.40077
557.567	11869.19829
557.772	11952.40077
557.977	11822.51762
558.182	11970.66289
558.387	12023.4165
558.592	12055.8776
558.797	11867.16879
559.002	12137.02172
559.207	11739.29305
559.412	11958.48821
559.617	12106.59411
559.822	12315.49693
560.027	12244.51918
560.232	12090.36535
560.437	11966.6047
560.642	12299.27421
560.847	12250.60333
561.051	12341.8579
561.256	12287.10687
561.461	12167.44763
561.666	12358.07945
561.871	12183.6741
562.076	11980.80823
562.281	12301.30207
562.485	12366.19006
562.69	12283.05104
562.895	12276.96723
563.1	12325.6359
563.305	12323.60812
563.509	12497.97243
563.714	12394.57634
563.919	12420.93384
564.123	12481.75456
564.328	12343.88561
564.533	12341.8579
564.737	12524.32557
564.942	12577.02865
565.147	12753.35125
565.351	12737.13954
565.556	12572.97472
565.761	12706.74159
565.965	12597.29794
566.17	12684.44893
566.374	12852.64008
566.579	12615.53977
566.784	12854.66624
566.988	12534.46111
567.193	13047.12789
567.397	12862.77085
567.602	13136.25275
567.806	12801.98419
568.011	13049.15356
568.215	13095.7426
568.42	13186.88783
568.624	13065.35874
568.828	13087.64034
569.033	12858.71856
569.237	12826.29944
569.442	13199.03983
569.646	12931.65652
569.85	13138.27821
570.055	13024.84522
570.259	13026.87094
570.463	13229.41911
570.668	13219.29279
570.872	13284.09933
571.076	13049.15356
571.281	13466.34489
571.485	13215.24223
571.689	13367.12635
571.893	13336.75142
572.098	13867.18242
572.302	13332.70136
572.506	13691.07257
572.71	13442.04733
572.914	13506.8396
573.119	13523.03707
573.323	13668.80414
573.527	13235.49485
573.731	13612.11906
573.935	13640.46193
574.139	13638.43746
574.343	13326.62624
574.547	13411.67461
