Data from mixed_try6.1_USB4F045381__32__00316.txt Node

Date: Thu Apr 03 20:34:25 EDT 2025
User: mmckonesweet
Spectrometer: USB4F04538
Trigger mode: 4
Integration Time (sec): 2.700000E-3
Scans to average: 1
Electric dark correction enabled: true
Nonlinearity correction enabled: true
Boxcar width: 0
XAxis mode: Wavelengths
Number of Pixels in Spectrum: 3648
>>>>>Begin Spectral Data<<<<<
345.52	-5.44397
345.736	-5.44397
345.952	-5.44397
346.168	-18.08741
346.384	9.30781
346.6	40.92271
346.816	-9.65855
347.032	0.87808
347.248	-58.11912
347.464	55.67812
347.68	9.30781
347.896	-26.51589
348.112	-30.72997
348.328	-37.05092
348.544	0.87808
348.76	13.52282
348.975	40.92271
349.191	26.16843
349.407	2.98547
349.623	-7.55127
349.839	-47.58533
350.055	-7.55127
350.27	38.81488
350.486	34.5993
350.702	-20.19457
350.918	32.49155
351.133	-1.2293
351.349	-3.33665
351.565	78.86748
351.781	-32.83698
351.996	43.03055
352.212	34.5993
352.428	-20.19457
352.644	-18.08741
352.859	36.70708
353.075	-24.40881
353.291	-83.39761
353.506	-5.44397
353.722	-5.44397
353.938	-11.7658
354.153	-22.3017
354.369	-28.62294
354.584	32.49155
354.8	-9.65855
355.016	-24.40881
355.231	11.4153
355.447	-24.40881
355.662	11.4153
355.878	68.32652
356.093	17.73793
356.309	55.67812
356.524	13.52282
356.74	87.30066
356.955	-15.98024
357.171	-72.86535
357.386	0.87808
357.602	34.5993
357.817	51.46218
358.033	30.38382
358.248	89.40901
358.464	28.27611
358.679	66.2184
358.895	-3.33665
359.11	-22.3017
359.325	17.73793
359.541	53.57014
359.756	11.4153
359.972	68.32652
360.187	-15.98024
360.402	13.52282
360.618	19.84552
360.833	28.27611
361.048	17.73793
361.264	-3.33665
361.479	-7.55127
361.694	-11.7658
361.909	47.24632
362.125	5.09289
362.34	47.24632
362.555	-20.19457
362.77	-62.33245
362.986	-9.65855
363.201	-49.69214
363.416	-9.65855
363.631	11.4153
363.847	99.95108
364.062	-24.40881
364.277	45.13842
364.492	43.03055
364.707	34.5993
364.922	-15.98024
365.138	38.81488
365.353	38.81488
365.568	-30.72997
365.783	26.16843
365.998	21.95313
366.213	-58.11912
366.428	19.84552
366.643	59.89417
366.858	78.86748
367.073	110.49372
367.288	-39.15785
367.503	51.46218
367.718	-20.19457
367.933	26.16843
368.148	34.5993
368.363	-72.86535
368.578	-5.44397
368.793	17.73793
369.008	-3.33665
369.223	68.32652
369.438	24.06077
369.653	17.73793
369.868	26.16843
370.083	47.24632
370.298	-20.19457
370.513	0.87808
370.728	17.73793
370.943	53.57014
371.157	62.00222
371.372	-3.33665
371.587	-37.05092
371.802	-49.69214
372.017	-7.55127
372.232	-5.44397
372.446	51.46218
372.661	68.32652
372.876	62.00222
373.091	51.46218
373.306	7.20034
373.52	24.06077
373.735	-7.55127
373.95	51.46218
374.165	11.4153
374.379	-20.19457
374.594	62.00222
374.809	11.4153
375.023	17.73793
375.238	26.16843
375.453	-66.54569
375.667	13.52282
375.882	-58.11912
376.097	2.98547
376.311	-20.19457
376.526	17.73793
376.741	34.5993
376.955	40.92271
377.17	43.03055
377.384	0.87808
377.599	7.20034
377.813	-15.98024
378.028	51.46218
378.242	17.73793
378.457	43.03055
378.672	0.87808
378.886	-13.87303
379.101	38.81488
379.315	28.27611
379.53	13.52282
379.744	11.4153
379.958	62.00222
380.173	9.30781
380.387	34.5993
380.602	26.16843
380.816	17.73793
381.031	28.27611
381.245	21.95313
381.459	17.73793
381.674	43.03055
381.888	-41.26476
382.103	47.24632
382.317	-15.98024
382.531	-11.7658
382.746	9.30781
382.96	17.73793
383.174	55.67812
383.388	110.49372
383.603	30.38382
383.817	51.46218
384.031	-22.3017
384.246	-32.83698
384.46	24.06077
384.674	-22.3017
384.888	-11.7658
385.103	76.75925
385.317	-32.83698
385.531	2.98547
385.745	-28.62294
385.959	9.30781
386.174	-5.44397
386.388	72.54284
386.602	-37.05092
386.816	26.16843
387.03	28.27611
387.244	26.16843
387.458	19.84552
387.672	68.32652
387.887	19.84552
388.101	-79.18478
388.315	9.30781
388.529	80.97574
388.743	2.98547
388.957	43.03055
389.171	11.4153
389.385	70.43467
389.599	5.09289
389.813	34.5993
390.027	11.4153
390.241	45.13842
390.455	5.09289
390.669	-9.65855
390.883	76.75925
391.097	26.16843
391.311	-70.75882
391.525	-13.87303
391.738	30.38382
391.952	26.16843
392.166	-11.7658
392.38	-15.98024
392.594	76.75925
392.808	38.81488
393.022	156.88773
393.236	-43.37164
393.449	21.95313
393.663	59.89417
393.877	2.98547
394.091	21.95313
394.305	43.03055
394.518	43.03055
394.732	-22.3017
394.946	-11.7658
395.16	38.81488
395.373	-32.83698
395.587	17.73793
395.801	28.27611
396.015	-26.51589
396.228	0.87808
396.442	30.38382
396.656	89.40901
396.869	43.03055
397.083	-7.55127
397.297	-37.05092
397.51	78.86748
397.724	26.16843
397.938	-24.40881
398.151	34.5993
398.365	51.46218
398.578	43.03055
398.792	80.97574
399.005	-11.7658
399.219	34.5993
399.433	9.30781
399.646	53.57014
399.86	-7.55127
400.073	-18.08741
400.287	74.65103
400.5	-32.83698
400.714	-26.51589
400.927	-13.87303
401.141	47.24632
401.354	49.35423
401.567	-62.33245
401.781	21.95313
401.994	17.73793
402.208	45.13842
402.421	55.67812
402.635	-20.19457
402.848	-15.98024
403.061	7.20034
403.275	-26.51589
403.488	26.16843
403.701	-9.65855
403.915	26.16843
404.128	72.54284
404.341	36.70708
404.555	55.67812
404.768	-15.98024
404.981	26.16843
405.195	9.30781
405.408	17.73793
405.621	30.38382
405.834	17.73793
406.048	-13.87303
406.261	-39.15785
406.474	-18.08741
406.687	26.16843
406.9	66.2184
407.114	-22.3017
407.327	-22.3017
407.54	59.89417
407.753	11.4153
407.966	-11.7658
408.179	28.27611
408.392	32.49155
408.605	32.49155
408.819	-15.98024
409.032	70.43467
409.245	9.30781
409.458	114.71092
409.671	123.1456
409.884	36.70708
410.097	53.57014
410.31	-7.55127
410.523	-41.26476
410.736	21.95313
410.949	28.27611
411.162	-45.4785
411.375	38.81488
411.588	-64.43909
411.801	-32.83698
412.014	51.46218
412.227	-7.55127
412.44	76.75925
412.653	34.5993
412.865	5.09289
413.078	24.06077
413.291	51.46218
413.504	51.46218
413.717	9.30781
413.93	-13.87303
414.143	47.24632
414.356	-26.51589
414.568	47.24632
414.781	26.16843
414.994	70.43467
415.207	9.30781
415.42	0.87808
415.632	70.43467
415.845	59.89417
416.058	38.81488
416.271	30.38382
416.483	5.09289
416.696	21.95313
416.909	64.1103
417.121	34.5993
417.334	51.46218
417.547	-43.37164
417.759	-15.98024
417.972	-15.98024
418.185	-41.26476
418.397	62.00222
418.61	43.03055
418.823	51.46218
419.035	0.87808
419.248	-3.33665
419.46	-24.40881
419.673	-28.62294
419.885	40.92271
420.098	9.30781
420.311	49.35423
420.523	13.52282
420.736	38.81488
420.948	-24.40881
421.161	87.30066
421.373	43.03055
421.586	26.16843
421.798	34.5993
422.01	17.73793
422.223	38.81488
422.435	-28.62294
422.648	66.2184
422.86	-28.62294
423.073	-26.51589
423.285	68.32652
423.497	76.75925
423.71	-64.43909
423.922	64.1103
424.134	-49.69214
424.347	-39.15785
424.559	43.03055
424.771	0.87808
424.984	51.46218
425.196	68.32652
425.408	43.03055
425.621	-13.87303
425.833	-13.87303
426.045	62.00222
426.257	0.87808
426.47	53.57014
426.682	32.49155
426.894	36.70708
427.106	-91.82295
427.318	-43.37164
427.531	26.16843
427.743	-11.7658
427.955	-22.3017
428.167	15.63036
428.379	30.38382
428.591	59.89417
428.804	19.84552
429.016	47.24632
429.228	47.24632
429.44	17.73793
429.652	9.30781
429.864	55.67812
430.076	85.19233
430.288	78.86748
430.5	5.09289
430.712	97.84262
430.924	2.98547
431.136	76.75925
431.348	0.87808
431.56	47.24632
431.772	51.46218
431.984	78.86748
432.196	93.62577
432.408	-5.44397
432.62	70.43467
432.832	7.20034
433.044	57.78613
433.256	66.2184
433.468	-56.01241
433.679	9.30781
433.891	9.30781
434.103	62.00222
434.315	34.5993
434.527	80.97574
434.739	30.38382
434.95	43.03055
435.162	15.63036
435.374	68.32652
435.586	26.16843
435.798	-7.55127
436.009	0.87808
436.221	-3.33665
436.433	-7.55127
436.645	28.27611
436.856	34.5993
437.068	38.81488
437.28	62.00222
437.491	70.43467
437.703	-24.40881
437.915	85.19233
438.126	110.49372
438.338	-30.72997
438.55	17.73793
438.761	47.24632
438.973	53.57014
439.184	9.30781
439.396	9.30781
439.608	19.84552
439.819	-11.7658
440.031	9.30781
440.242	146.34273
440.454	51.46218
440.665	19.84552
440.877	26.16843
441.088	-13.87303
441.3	57.78613
441.511	-32.83698
441.723	21.95313
441.934	34.5993
442.146	93.62577
442.357	9.30781
442.569	47.24632
442.78	38.81488
442.991	9.30781
443.203	17.73793
443.414	45.13842
443.626	72.54284
443.837	55.67812
444.048	87.30066
444.26	-30.72997
444.471	72.54284
444.682	28.27611
444.894	0.87808
445.105	87.30066
445.316	21.95313
445.528	-7.55127
445.739	-24.40881
445.95	87.30066
446.161	-20.19457
446.373	59.89417
446.584	55.67812
446.795	40.92271
447.006	89.40901
447.217	102.05957
447.429	68.32652
447.64	9.30781
447.851	34.5993
448.062	133.68943
448.273	34.5993
448.484	26.16843
448.695	-7.55127
448.907	-20.19457
449.118	89.40901
449.329	87.30066
449.54	26.16843
449.751	51.46218
449.962	21.95313
450.173	-22.3017
450.384	64.1103
450.595	11.4153
450.806	80.97574
451.017	26.16843
451.228	62.00222
451.439	78.86748
451.65	17.73793
451.861	-13.87303
452.072	-5.44397
452.283	93.62577
452.494	36.70708
452.705	76.75925
452.915	-7.55127
453.126	32.49155
453.337	36.70708
453.548	102.05957
453.759	55.67812
453.97	93.62577
454.181	36.70708
454.391	13.52282
454.602	45.13842
454.813	53.57014
455.024	110.49372
455.235	114.71092
455.445	95.73419
455.656	40.92271
455.867	19.84552
456.078	110.49372
456.288	76.75925
456.499	9.30781
456.71	43.03055
456.921	38.81488
457.131	59.89417
457.342	99.95108
457.553	87.30066
457.763	133.68943
457.974	24.06077
458.184	26.16843
458.395	118.92822
458.606	112.60231
458.816	78.86748
459.027	163.21498
459.237	26.16843
459.448	62.00222
459.659	123.1456
459.869	95.73419
460.08	9.30781
460.29	131.58062
460.501	87.30066
460.711	87.30066
460.922	114.71092
461.132	131.58062
461.343	45.13842
461.553	59.89417
461.764	51.46218
461.974	144.23379
462.184	55.67812
462.395	76.75925
462.605	131.58062
462.816	108.38515
463.026	51.46218
463.236	110.49372
463.447	127.36306
463.657	129.47183
463.867	180.08857
464.078	156.88773
464.288	110.49372
464.498	137.90711
464.709	127.36306
464.919	102.05957
465.129	169.54242
465.339	177.9793
465.55	135.79826
465.76	129.47183
465.97	104.16807
466.18	148.45169
466.391	209.6205
466.601	161.10588
466.811	118.92822
467.021	175.87005
467.231	182.19786
467.441	135.79826
467.651	211.73008
467.862	230.71714
468.072	118.92822
468.282	177.9793
468.492	220.16857
468.702	156.88773
468.912	270.8061
469.122	148.45169
469.332	211.73008
469.542	144.23379
469.752	277.13656
469.962	203.2919
470.172	285.57744
470.382	177.9793
470.592	285.57744
470.802	192.74463
471.012	270.8061
471.222	262.36575
471.432	298.23931
471.642	222.27825
471.852	344.67174
472.062	220.16857
472.272	196.96348
472.482	321.45445
472.691	285.57744
472.901	397.44606
473.111	313.01233
473.321	342.56099
473.531	338.33954
473.741	304.5705
473.95	336.22884
474.16	412.22473
474.37	414.33604
474.58	332.0075
474.79	471.34722
474.999	448.11907
475.209	372.11307
475.419	450.23064
475.628	500.91295
475.838	435.44996
476.048	557.94055
476.258	566.38994
476.467	547.37911
476.677	469.23549
476.886	638.2182
477.096	633.9926
477.306	699.49467
477.515	688.92907
477.725	583.28936
477.935	602.30222
478.144	646.66954
478.354	621.31611
478.563	904.51724
478.773	754.44019
478.982	832.64368
479.192	822.07489
479.401	955.25704
479.611	798.82435
479.82	710.06055
480.03	836.87127
480.239	1008.11532
480.449	862.23749
480.658	1014.45858
480.868	993.31459
481.077	1126.53129
481.287	1048.29025
481.496	1189.97456
481.705	1048.29025
481.915	1338.01999
482.124	1147.67864
482.333	1314.75496
482.543	1149.7934
482.752	1204.77848
482.961	1225.92723
483.171	1414.16117
483.38	1329.55995
483.589	1551.63908
483.799	1458.57724
484.008	1420.50631
484.217	1500.87823
484.426	1648.92834
484.636	1598.16922
484.845	1602.39919
485.054	1577.01925
485.263	1714.49005
485.472	1581.24925
485.682	2065.4913
485.891	1796.96637
486.1	1720.83457
486.309	1699.68604
486.518	1921.72558
486.727	1944.98375
486.936	2002.06891
487.146	1911.15346
487.355	2147.93069
487.564	1959.78404
487.773	2232.47127
487.982	2025.3245
488.191	2268.39681
488.4	2103.54168
488.609	2316.99772
488.818	2300.09362
489.027	2536.69123
489.236	2494.45158
489.445	2688.7145
489.654	2418.40899
489.863	2612.71079
490.072	2574.70294
490.281	2608.48789
490.49	2593.70736
490.698	2600.04195
490.907	2730.93162
491.116	2806.90907
491.325	2692.93644
491.534	2718.26703
491.743	2747.817
491.952	2963.02805
492.16	2941.93553
492.369	2823.79055
492.578	2828.01078
492.787	2893.41715
492.996	3106.4169
493.204	3119.06539
493.413	3152.7919
493.622	3264.48105
493.831	3085.3348
494.039	3380.33474
494.248	3239.19702
494.457	3460.34823
494.665	3348.74346
494.874	3380.33474
495.083	3264.48105
495.291	3527.70788
495.5	3498.24032
495.709	3435.08359
495.917	3264.48105
496.126	3525.60317
496.335	3674.99113
496.543	3738.08411
496.752	3544.54487
496.96	3784.34122
497.169	3578.21531
497.377	3889.43562
497.586	3685.50783
497.794	4055.38229
498.003	3662.37047
498.211	4055.38229
498.42	3792.75059
498.628	4191.82407
498.837	3811.67052
499.045	4120.46555
499.254	3994.47995
499.462	4118.3664
499.671	4225.3961
499.879	4227.49417
500.087	4128.86193
500.296	4328.17645
500.504	4288.32896
500.713	4204.41422
500.921	4149.85141
501.129	4273.64635
501.338	4206.5125
501.546	4382.69196
501.754	4317.69102
501.962	4309.30229
502.171	4422.52092
502.379	4680.16845
502.587	4395.27038
502.795	4638.29748
503.004	4510.53583
503.212	4881.02328
503.42	4701.10057
503.628	4657.14053
503.837	4481.20184
504.045	4684.35506
504.253	4860.11069
504.461	4945.83778
504.669	4740.86538
504.877	4889.38768
505.085	4799.45125
505.294	5014.80958
505.502	4952.10898
505.71	5033.61571
505.918	4927.02294
506.126	5334.25794
506.334	4824.55403
506.542	5330.08567
506.75	4979.28179
506.958	5229.92306
507.166	5131.79505
507.374	5108.8215
507.582	5094.20051
507.79	5085.84514
507.998	5098.37805
508.206	5484.3972
508.414	5227.83576
508.622	5442.70407
508.83	5298.79064
509.037	5288.3578
509.245	5221.57374
509.453	5386.40342
509.661	5359.2896
509.869	5694.80358
510.077	5467.72107
510.285	5686.47523
510.492	5305.05007
510.7	5709.37728
510.908	5526.08092
511.116	5486.48161
511.324	5617.75193
511.531	5669.81739
511.739	5767.66054
511.947	5742.68427
512.155	5678.1465
512.362	5763.49807
512.57	5676.06426
512.778	5807.19936
512.985	5909.12856
513.193	5994.37275
513.401	5975.664
513.608	6052.56552
513.816	5934.08218
514.024	6104.50776
514.231	5825.9253
514.439	5952.79517
514.646	6044.2534
514.854	6353.6263
515.061	6218.72899
515.269	6183.43183
515.477	6100.35293
515.684	6260.24638
515.892	6218.72899
516.099	6316.28001
516.307	6395.1133
516.514	6475.98617
516.722	6264.39761
516.929	6488.42501
517.136	6227.03322
517.344	6490.49807
517.551	6316.28001
517.759	6382.66818
517.966	6679.0496
518.173	6606.55241
518.381	6565.11276
518.588	6550.6067
518.796	6674.90767
519.003	6710.1112
519.21	6629.34028
519.418	6912.92041
519.625	6627.26877
519.832	6658.339
520.039	6726.67528
520.247	6813.61265
520.454	6879.82364
520.661	7082.45069
520.868	6585.83374
521.076	7030.78065
521.283	6697.68718
521.49	7049.38348
521.697	6832.23684
521.904	7057.65082
522.112	6776.35871
522.319	7258.02461
522.526	6875.68613
522.733	7218.79258
522.94	7274.54098
523.147	7315.82575
523.354	7206.40186
523.561	7505.62323
523.768	7032.84772
523.975	7276.60543
524.183	7319.95374
524.39	7781.74235
524.597	7392.17947
524.804	7610.75832
525.011	7385.98974
525.218	7437.56483
525.425	7806.45095
525.632	7691.11832
525.838	7606.63642
526.045	7581.90325
526.252	7806.45095
526.459	7660.21444
526.666	7515.93305
526.873	7818.80413
527.08	7802.33306
527.287	8067.76803
527.494	7779.68316
527.701	7981.38478
527.907	8026.63762
528.114	8063.65536
528.321	7804.39202
528.528	8004.01243
528.735	8075.99315
528.941	8104.7785
529.148	7773.50548
529.355	8049.26035
529.562	7950.52491
529.768	8283.57119
529.975	7707.59845
530.182	8217.82582
530.388	8067.76803
530.595	8373.9383
530.802	8195.22118
531.008	8614.0515
531.215	8550.45707
531.422	8704.28376
531.628	8462.21537
531.835	8612.00035
532.042	8398.57735
532.248	8864.15356
532.455	8339.02821
532.661	8667.3749
532.868	8423.21361
533.074	8782.18288
533.281	8597.64176
533.487	8716.58538
533.694	8683.77958
533.9	8851.8598
534.107	8620.20484
534.313	8864.15356
534.52	8667.3749
534.726	9142.64131
534.933	8782.18288
535.139	8839.56539
535.345	8915.37062
535.552	9159.01293
535.758	9034.1515
535.965	9146.73432
536.171	8720.68577
536.377	9224.48853
536.584	8884.64172
536.79	9289.94687
536.996	9185.61449
537.203	9314.48934
537.409	9048.48313
537.615	9259.26541
537.821	9130.36187
538.028	9424.90107
538.234	9073.04966
538.44	9339.02942
538.646	9435.12197
538.853	9261.31096
539.059	9126.26859
539.265	9420.81259
539.471	9410.59113
539.677	9418.76833
539.883	9594.51608
540.09	9764.02302
540.296	9390.14697
540.502	9737.48073
540.708	9739.52253
540.914	9996.67053
541.12	9737.48073
541.326	10212.82394
541.532	9806.89364
541.738	9957.90919
541.944	9717.06183
542.15	9804.85233
542.356	9676.21943
542.562	9808.93493
542.768	9761.9814
542.974	9945.66769
543.18	9668.05022
543.386	10394.1922
543.592	9964.02975
543.798	9935.46603
544.004	9986.47068
544.21	10269.89508
544.415	10051.7435
544.621	10400.3039
544.827	10163.89729
545.033	10553.05876
545.239	10384.00576
545.445	10601.92525
545.651	10286.19917
545.856	10548.98623
546.062	10282.12323
546.268	10646.71326
546.474	10379.93109
546.679	10518.44062
546.885	10204.67005
547.091	10278.04723
547.297	10033.387
547.502	10473.63523
547.708	10540.84101
547.914	10487.89216
548.119	10559.16746
548.325	10921.42148
548.531	10204.67005
548.736	10701.67225
548.942	10770.86736
549.147	10449.19332
549.353	10819.70271
549.559	10689.45991
549.764	10548.98623
549.97	10679.28262
550.175	10787.14656
550.381	11283.31544
550.586	10905.1484
550.792	11297.54038
550.997	11055.64689
551.203	11328.02073
551.408	11084.11277
551.614	11078.01312
551.819	11051.58016
552.025	11220.31323
552.23	11303.63664
552.435	11193.88998
552.641	11309.7328
552.846	11425.54277
553.052	11157.30102
553.257	11342.24412
553.462	11250.7994
553.668	11585.99927
553.873	11521.01135
554.078	11596.15277
554.283	11417.4168
554.489	11435.70001
554.694	11547.41384
554.899	11535.22827
555.105	11244.70235
555.31	11514.91824
555.515	11835.71043
555.72	11920.94779
555.925	11518.98032
556.131	11807.29469
556.336	11344.27599
556.541	11709.85648
556.746	11551.47562
556.951	11579.90705
557.156	11612.3979
557.361	11776.8474
557.567	11884.41929
557.772	12008.19966
557.977	11701.73572
558.182	11927.03562
558.387	11799.1756
558.592	11941.24026
558.797	11937.18183
559.002	11847.8881
559.207	12083.26511
559.412	12227.28041
559.617	12030.51753
559.822	12056.89198
560.027	11874.27201
560.232	12034.57523
560.437	12310.42738
560.642	12426.00246
560.847	12239.44901
561.051	12280.00914
561.256	12320.56644
561.461	12417.89265
561.666	12543.58296
561.871	12551.69116
562.076	12336.78857
562.281	12383.42475
562.485	12241.47709
562.69	12367.20388
562.895	12340.84404
563.1	12152.23488
563.305	12269.86938
563.509	12318.53864
563.714	12277.9812
563.919	12505.06761
564.123	12415.86518
564.328	12350.98257
564.533	12448.3039
564.737	12253.64538
564.942	12849.60082
565.147	12667.22229
565.351	12950.9029
565.556	12788.81309
565.761	12588.17684
565.965	12886.0711
566.17	12683.43561
566.374	12922.53965
566.579	12823.26008
566.784	12655.06205
566.988	12744.23221
567.193	12762.47017
567.397	12904.30559
567.602	12973.18759
567.806	12886.0711
568.011	12979.26513
568.215	13335.73891
568.42	13202.0778
568.624	12900.25352
568.828	13019.78089
569.033	12559.79927
569.237	12973.18759
569.442	13080.5508
569.646	13212.2043
569.85	13161.57065
570.055	13483.55532
570.259	13181.82445
570.463	13313.46335
570.668	13183.84981
570.872	13125.11265
571.076	13274.98618
571.281	13167.64684
571.485	13226.38123
571.689	13222.3307
571.893	13424.83623
572.098	14011.90046
572.302	13489.62953
572.506	13623.25384
572.71	13422.81138
572.914	13671.84077
573.119	13526.07407
573.323	13665.7675
573.527	13503.80255
573.731	13787.2273
573.935	13501.77784
574.139	13645.52309
574.343	13487.6048
574.547	13491.65426
574.751	13617.18034
574.955	13730.54746
575.159	13368.13884
575.364	13714.35278
