Data from mixed_try6.1_USB4F045381__15__00299.txt Node

Date: Thu Apr 03 20:32:37 EDT 2025
User: mmckonesweet
Spectrometer: USB4F04538
Trigger mode: 4
Integration Time (sec): 2.700000E-3
Scans to average: 1
Electric dark correction enabled: true
Nonlinearity correction enabled: true
Boxcar width: 0
XAxis mode: Wavelengths
Number of Pixels in Spectrum: 3648
>>>>>Begin Spectral Data<<<<<
345.52	-57.768
345.736	-57.768
345.952	-57.768
346.168	47.59764
346.384	5.44413
346.6	-11.4146
346.816	56.02946
347.032	39.16618
347.248	1.22931
347.464	9.65906
347.68	-26.16471
347.896	-26.16471
348.112	-59.87469
348.328	39.16618
348.544	13.87408
348.76	-24.05762
348.975	-11.4146
349.191	-15.62904
349.407	-11.4146
349.623	-2.98542
349.839	-36.69976
350.055	30.7351
350.27	7.55158
350.486	22.3044
350.702	-83.04654
350.918	24.41204
351.133	91.86877
351.349	-34.5928
351.565	58.13747
351.781	13.87408
351.996	-45.12736
352.212	-7.20006
352.428	-53.55456
352.644	13.87408
352.859	-36.69976
353.075	-9.30734
353.291	-7.20006
353.506	-5.09275
353.722	7.55158
353.938	41.27401
354.153	13.87408
354.369	15.98162
354.584	11.76656
354.8	-28.27177
355.016	-17.73622
355.231	64.46165
355.447	58.13747
355.662	-2.98542
355.878	-15.62904
356.093	-15.62904
356.309	-21.95051
356.524	-13.52183
356.74	68.67788
356.955	62.35357
357.171	1.22931
357.386	39.16618
357.602	-7.20006
357.817	-36.69976
358.033	3.33671
358.248	-26.16471
358.464	-5.09275
358.679	-40.91361
358.895	22.3044
359.11	-28.27177
359.325	-15.62904
359.541	7.55158
359.756	15.98162
359.972	-0.87807
360.187	-36.69976
360.402	26.51971
360.618	1.22931
360.833	-34.5928
361.048	41.27401
361.264	-7.20006
361.479	22.3044
361.694	-19.84338
361.909	26.51971
362.125	-49.34101
362.34	47.59764
362.555	-28.27177
362.77	41.27401
362.986	-15.62904
363.201	-17.73622
363.416	66.56975
363.631	26.51971
363.847	1.22931
364.062	-36.69976
364.277	-2.98542
364.492	22.3044
364.707	-15.62904
364.922	26.51971
365.138	15.98162
365.353	-26.16471
365.568	15.98162
365.783	-11.4146
365.998	-24.05762
366.213	-38.8067
366.428	-53.55456
366.643	24.41204
366.858	-47.2342
367.073	-68.30117
367.288	39.16618
367.503	-78.83371
367.718	-17.73622
367.933	26.51971
368.148	-34.5928
368.363	-17.73622
368.578	34.9506
368.793	-43.0205
369.008	-32.48582
369.223	1.22931
369.438	9.65906
369.653	15.98162
369.868	5.44413
370.083	-19.84338
370.298	-83.04654
370.513	-112.53347
370.728	-13.52183
370.943	3.33671
371.157	-2.98542
371.372	47.59764
371.587	-0.87807
371.802	-36.69976
372.017	-66.19459
372.232	-26.16471
372.446	72.8942
372.661	26.51971
372.876	-7.20006
373.091	-24.05762
373.306	-2.98542
373.52	-45.12736
373.735	-0.87807
373.95	43.38186
374.165	85.54372
374.379	-57.768
374.594	-40.91361
374.809	-26.16471
375.023	-2.98542
375.238	-51.44779
375.453	-28.27177
375.667	-87.25927
375.882	-15.62904
376.097	37.05838
376.311	45.48974
376.526	-26.16471
376.741	-28.27177
376.955	64.46165
377.17	34.9506
377.384	-17.73622
377.599	64.46165
377.813	-34.5928
378.028	-32.48582
378.242	-70.40773
378.457	-11.4146
378.672	56.02946
378.886	30.7351
379.101	47.59764
379.315	-36.69976
379.53	5.44413
379.744	24.41204
379.958	-30.3788
380.173	-2.98542
380.387	15.98162
380.602	-7.20006
380.816	1.22931
381.031	-24.05762
381.245	-45.12736
381.459	13.87408
381.674	47.59764
381.888	-28.27177
382.103	-9.30734
382.317	-51.44779
382.531	-26.16471
382.746	1.22931
382.96	24.41204
383.174	-57.768
383.388	47.59764
383.603	13.87408
383.817	49.70556
384.031	-28.27177
384.246	-11.4146
384.46	-7.20006
384.674	-24.05762
384.888	-47.2342
385.103	-15.62904
385.317	-5.09275
385.531	11.76656
385.745	-57.768
385.959	-51.44779
386.174	-72.51427
386.388	3.33671
386.602	85.54372
386.816	-49.34101
387.03	-72.51427
387.244	-74.62077
387.458	108.73657
387.672	15.98162
387.887	-76.72725
388.101	-32.48582
388.315	34.9506
388.529	-24.05762
388.743	-36.69976
388.957	-19.84338
389.171	-11.4146
389.385	34.9506
389.599	-15.62904
389.813	-53.55456
390.027	-53.55456
390.241	-51.44779
390.455	30.7351
390.669	-106.21527
390.883	43.38186
391.097	-24.05762
391.311	18.08919
391.525	-53.55456
391.738	43.38186
391.952	30.7351
392.166	-0.87807
392.38	49.70556
392.594	-34.5928
392.808	7.55158
393.022	-9.30734
393.236	47.59764
393.449	-83.04654
393.663	-43.0205
393.877	51.8135
394.091	13.87408
394.305	39.16618
394.518	51.8135
394.732	7.55158
394.946	5.44413
395.16	22.3044
395.373	119.27966
395.587	1.22931
395.801	-57.768
396.015	-19.84338
396.228	-19.84338
396.442	-45.12736
396.656	34.9506
396.869	30.7351
397.083	56.02946
397.297	32.84284
397.51	-9.30734
397.724	18.08919
397.938	39.16618
398.151	-9.30734
398.365	-11.4146
398.578	-34.5928
398.792	58.13747
399.005	64.46165
399.219	56.02946
399.433	51.8135
399.646	-34.5928
399.86	-36.69976
400.073	20.19678
400.287	1.22931
400.5	-26.16471
400.714	-24.05762
400.927	39.16618
401.141	3.33671
401.354	22.3044
401.567	-93.57817
401.781	-36.69976
401.994	-24.05762
402.208	47.59764
402.421	-15.62904
402.635	-28.27177
402.848	-28.27177
403.061	-45.12736
403.275	98.19403
403.488	64.46165
403.701	-19.84338
403.915	22.3044
404.128	-21.95051
404.341	5.44413
404.555	-53.55456
404.768	22.3044
404.981	102.41098
405.195	45.48974
405.408	11.76656
405.621	56.02946
405.834	9.65906
406.048	-2.98542
406.261	13.87408
406.474	-26.16471
406.687	-89.3656
406.9	9.65906
407.114	13.87408
407.327	43.38186
407.54	-68.30117
407.753	39.16618
407.966	-61.98135
408.179	-9.30734
408.392	-0.87807
408.605	-19.84338
408.819	51.8135
409.032	51.8135
409.245	-21.95051
409.458	-21.95051
409.671	96.08559
409.884	39.16618
410.097	-61.98135
410.31	-43.0205
410.523	-104.10916
410.736	-26.16471
410.949	-13.52183
411.162	-2.98542
411.375	-34.5928
411.588	49.70556
411.801	-0.87807
412.014	-11.4146
412.227	5.44413
412.44	30.7351
412.653	41.27401
412.865	-15.62904
413.078	13.87408
413.291	58.13747
413.504	15.98162
413.717	-7.20006
413.93	26.51971
414.143	-76.72725
414.356	-45.12736
414.568	28.62739
414.781	13.87408
414.994	-53.55456
415.207	47.59764
415.42	13.87408
415.632	-34.5928
415.845	-47.2342
416.058	-11.4146
416.271	-32.48582
416.483	18.08919
416.696	22.3044
416.909	-7.20006
417.121	28.62739
417.334	-45.12736
417.547	-26.16471
417.759	-36.69976
417.972	51.8135
418.185	13.87408
418.397	22.3044
418.61	-11.4146
418.823	-26.16471
419.035	5.44413
419.248	-21.95051
419.46	-36.69976
419.673	-11.4146
419.885	-28.27177
420.098	34.9506
420.311	-36.69976
420.523	-11.4146
420.736	-26.16471
420.948	-2.98542
421.161	11.76656
421.373	5.44413
421.586	-21.95051
421.798	51.8135
422.01	30.7351
422.223	26.51971
422.435	43.38186
422.648	47.59764
422.86	-45.12736
423.073	-13.52183
423.285	5.44413
423.497	-13.52183
423.71	18.08919
423.922	13.87408
424.134	-19.84338
424.347	22.3044
424.559	32.84284
424.771	-70.40773
424.984	-0.87807
425.196	49.70556
425.408	-15.62904
425.621	-21.95051
425.833	-78.83371
426.045	-11.4146
426.257	-17.73622
426.47	13.87408
426.682	-78.83371
426.894	-9.30734
427.106	18.08919
427.318	-9.30734
427.531	91.86877
427.743	15.98162
427.955	-5.09275
428.167	24.41204
428.379	15.98162
428.591	37.05838
428.804	-61.98135
429.016	-51.44779
429.228	-87.25927
429.44	28.62739
429.652	41.27401
429.864	49.70556
430.076	-7.20006
430.288	13.87408
430.5	-11.4146
430.712	-59.87469
430.924	-51.44779
431.136	-11.4146
431.348	39.16618
431.56	-28.27177
431.772	79.21886
431.984	-19.84338
432.196	-19.84338
432.408	30.7351
432.62	-15.62904
432.832	51.8135
433.044	-28.27177
433.256	-9.30734
433.468	56.02946
433.679	49.70556
433.891	11.76656
434.103	5.44413
434.315	62.35357
434.527	-19.84338
434.739	56.02946
434.95	20.19678
435.162	13.87408
435.374	15.98162
435.586	-19.84338
435.798	24.41204
436.009	-40.91361
436.221	22.3044
436.433	7.55158
436.645	-11.4146
436.856	24.41204
437.068	5.44413
437.28	-5.09275
437.491	43.38186
437.703	9.65906
437.915	-28.27177
438.126	5.44413
438.338	24.41204
438.55	-28.27177
438.761	41.27401
438.973	39.16618
439.184	64.46165
439.396	62.35357
439.608	47.59764
439.819	20.19678
440.031	30.7351
440.242	9.65906
440.454	-43.0205
440.665	49.70556
440.877	-34.5928
441.088	5.44413
441.3	85.54372
441.511	26.51971
441.723	13.87408
441.934	-28.27177
442.146	-43.0205
442.357	32.84284
442.569	9.65906
442.78	-17.73622
442.991	5.44413
443.203	32.84284
443.414	-15.62904
443.626	13.87408
443.837	22.3044
444.048	-0.87807
444.26	-26.16471
444.471	-2.98542
444.682	-11.4146
444.894	-26.16471
445.105	-30.3788
445.316	9.65906
445.528	-70.40773
445.739	49.70556
445.95	47.59764
446.161	56.02946
446.373	47.59764
446.584	-15.62904
446.795	20.19678
447.006	-28.27177
447.217	3.33671
447.429	26.51971
447.64	64.46165
447.851	1.22931
448.062	-13.52183
448.273	20.19678
448.484	43.38186
448.695	13.87408
448.907	13.87408
449.118	13.87408
449.329	37.05838
449.54	-11.4146
449.751	7.55158
449.962	-19.84338
450.173	-11.4146
450.384	64.46165
450.595	39.16618
450.806	-61.98135
451.017	-19.84338
451.228	-2.98542
451.439	-0.87807
451.65	-24.05762
451.861	-34.5928
452.072	-19.84338
452.283	47.59764
452.494	-2.98542
452.705	-72.51427
452.915	-11.4146
453.126	77.11062
453.337	68.67788
453.548	-17.73622
453.759	-11.4146
453.97	1.22931
454.181	-2.98542
454.391	85.54372
454.602	3.33671
454.813	58.13747
455.024	-51.44779
455.235	64.46165
455.445	39.16618
455.656	15.98162
455.867	37.05838
456.078	-24.05762
456.288	-19.84338
456.499	-26.16471
456.71	64.46165
456.921	5.44413
457.131	66.56975
457.342	-89.3656
457.553	-11.4146
457.763	-32.48582
457.974	-19.84338
458.184	91.86877
458.395	51.8135
458.606	18.08919
458.816	-11.4146
459.027	15.98162
459.237	34.9506
459.448	-7.20006
459.659	-28.27177
459.869	9.65906
460.08	-9.30734
460.29	24.41204
460.501	18.08919
460.711	15.98162
460.922	-19.84338
461.132	-36.69976
461.343	41.27401
461.553	-2.98542
461.764	53.92147
461.974	22.3044
462.184	-24.05762
462.395	37.05838
462.605	20.19678
462.816	37.05838
463.026	70.78603
463.236	32.84284
463.447	-24.05762
463.657	32.84284
463.867	60.24551
464.078	47.59764
464.288	41.27401
464.498	-36.69976
464.709	28.62739
464.919	58.13747
465.129	24.41204
465.339	39.16618
465.55	32.84284
465.76	1.22931
465.97	15.98162
466.18	-21.95051
466.391	47.59764
466.601	30.7351
466.811	1.22931
467.021	56.02946
467.231	-9.30734
467.441	-32.48582
467.651	34.9506
467.862	102.41098
468.072	9.65906
468.282	26.51971
468.492	39.16618
468.702	24.41204
468.912	-17.73622
469.122	47.59764
469.332	-7.20006
469.542	26.51971
469.752	22.3044
469.962	64.46165
470.172	45.48974
470.382	18.08919
470.592	1.22931
470.802	-34.5928
471.012	-34.5928
471.222	70.78603
471.432	-7.20006
471.642	72.8942
471.852	30.7351
472.062	-38.8067
472.272	77.11062
472.482	32.84284
472.691	49.70556
472.901	13.87408
473.111	51.8135
473.321	-7.20006
473.531	64.46165
473.741	-45.12736
473.95	79.21886
474.16	106.62802
474.37	47.59764
474.58	68.67788
474.79	7.55158
474.999	41.27401
475.209	15.98162
475.419	56.02946
475.628	26.51971
475.838	93.97717
476.048	117.171
476.258	64.46165
476.467	43.38186
476.677	34.9506
476.886	43.38186
477.096	66.56975
477.306	22.3044
477.515	-2.98542
477.725	32.84284
477.935	30.7351
478.144	28.62739
478.354	56.02946
478.563	79.21886
478.773	13.87408
478.982	26.51971
479.192	41.27401
479.401	39.16618
479.611	115.06236
479.82	5.44413
480.03	53.92147
480.239	28.62739
480.449	51.8135
480.658	24.41204
480.868	51.8135
481.077	110.84515
481.287	1.22931
481.496	43.38186
481.705	9.65906
481.915	79.21886
482.124	81.32712
482.333	43.38186
482.543	-9.30734
482.752	30.7351
482.961	64.46165
483.171	131.93208
483.38	106.62802
483.589	26.51971
483.799	47.59764
484.008	131.93208
484.217	134.0409
484.426	96.08559
484.636	81.32712
484.845	26.51971
485.054	56.02946
485.263	24.41204
485.472	43.38186
485.682	58.13747
485.891	106.62802
486.1	11.76656
486.309	157.23924
486.518	43.38186
486.727	51.8135
486.936	150.91217
487.146	47.59764
487.355	66.56975
487.564	89.7604
487.773	75.0024
487.982	127.71452
488.191	134.0409
488.4	64.46165
488.609	72.8942
488.818	98.19403
489.027	64.46165
489.236	136.14973
489.445	153.02117
489.654	30.7351
489.863	112.95374
490.072	140.36746
490.281	167.78478
490.49	106.62802
490.698	91.86877
490.907	161.45739
491.116	75.0024
491.325	123.49705
491.534	134.0409
491.743	93.97717
491.952	182.54942
492.16	108.73657
492.369	110.84515
492.578	161.45739
492.787	150.91217
492.996	102.41098
493.204	142.47636
493.413	112.95374
493.622	83.43541
493.831	150.91217
494.039	195.20561
494.248	190.9868
494.457	165.67563
494.665	186.76807
494.874	112.95374
495.083	142.47636
495.291	174.11236
495.5	165.67563
495.709	190.9868
495.917	186.76807
496.126	176.22159
496.335	233.17854
496.543	182.54942
496.752	150.91217
496.96	176.22159
497.169	157.23924
497.377	220.52019
497.586	199.42451
497.794	317.58511
498.003	193.0962
498.211	243.72771
498.42	209.9721
498.628	186.76807
498.837	193.0962
499.045	304.92223
499.254	237.39815
499.462	209.9721
499.671	209.9721
499.879	216.30089
500.087	252.16739
500.296	241.61784
500.504	254.27736
500.713	275.37808
500.921	294.37034
501.129	266.93757
501.338	262.71742
501.546	304.92223
501.754	197.31505
501.962	283.8189
502.171	252.16739
502.379	250.05744
502.587	271.15779
502.795	226.84928
503.004	254.27736
503.212	298.59104
503.42	313.36408
503.628	269.04767
503.837	266.93757
504.045	383.02003
504.253	260.60738
504.461	296.48068
504.669	380.90897
504.877	399.90911
505.085	351.3559
505.294	364.02109
505.502	300.70142
505.71	410.46532
505.918	406.24279
506.126	383.02003
506.334	237.39815
506.542	482.25804
506.75	347.1343
506.958	347.1343
507.166	334.46994
507.374	340.80204
507.582	395.68674
507.79	503.37689
507.998	446.35944
508.206	444.24789
508.414	391.46444
508.622	378.79793
508.83	404.13155
509.037	440.02485
509.245	342.91278
509.453	406.24279
509.661	520.27302
509.869	456.91739
510.077	452.69416
510.285	488.59354
510.492	427.3561
510.7	547.73116
510.908	427.3561
511.116	469.58744
511.324	410.46532
511.531	469.58744
511.739	456.91739
511.947	425.2447
512.155	494.92917
512.362	573.07919
512.57	532.94571
512.778	575.19162
512.985	522.3851
513.193	575.19162
513.401	537.17005
513.608	530.83356
513.816	513.93686
514.024	545.61891
514.231	423.13331
514.439	587.86644
514.646	461.14068
514.854	668.15088
515.061	444.24789
515.269	638.57033
515.477	579.4165
515.684	691.39435
515.892	564.62963
516.099	579.4165
516.307	623.78095
516.514	695.62058
516.722	606.87955
516.929	625.89368
517.136	596.31658
517.344	640.68315
517.551	672.37686
517.759	568.85439
517.966	680.82896
518.173	750.56559
518.381	731.54534
518.588	714.63918
518.796	731.54534
519.003	807.63124
519.21	704.07318
519.418	710.41275
519.625	651.24742
519.832	765.35969
520.039	845.67884
520.247	799.17662
520.454	773.81369
520.661	945.03827
520.868	729.43204
521.076	841.45119
521.283	704.07318
521.49	843.56501
521.697	902.75551
521.904	951.38093
522.112	739.99868
522.319	885.84328
522.526	879.50133
522.733	942.92406
522.94	809.74492
523.147	792.83576
523.354	841.45119
523.561	1054.98627
523.768	904.86958
523.975	1124.76903
524.183	849.90653
524.39	987.3239
524.597	985.20956
524.804	1014.81099
525.011	942.92406
525.218	803.40391
525.425	985.20956
525.632	1046.52815
525.838	955.60942
526.045	1031.72664
526.252	936.58148
526.459	1093.04892
526.666	945.03827
526.873	1181.86772
527.08	1099.39286
527.287	1054.98627
527.494	1040.18461
527.701	1103.62217
527.907	1057.10082
528.114	1059.21537
528.321	1082.47579
528.528	1181.86772
528.735	1095.16356
528.941	1312.99246
529.148	1215.70529
529.355	1289.72768
529.562	1281.26782
529.768	1226.27971
529.975	1175.52328
530.182	1205.13096
530.388	1061.32993
530.595	1173.40847
530.802	1222.04993
531.008	1359.52268
531.215	1272.80799
531.422	1308.76248
531.628	1209.36068
531.835	1319.33745
532.042	1173.40847
532.248	1340.4875
532.455	1408.16853
532.661	1450.46954
532.868	1120.53962
533.074	1518.15108
533.281	1332.02746
533.487	1391.24818
533.694	1357.40765
533.9	1598.52171
534.107	1264.34821
534.313	1596.40672
534.52	1444.12438
534.726	1602.75169
534.933	1401.8234
535.139	1712.72767
535.345	1427.20397
535.552	1554.1066
535.758	1628.13135
535.965	1645.05095
536.171	1585.83175
536.377	1725.41671
536.584	1634.47622
536.79	1653.51069
536.996	1657.74055
537.203	1790.9747
537.409	1568.91171
537.615	1700.03851
537.821	1450.46954
538.028	1763.48308
538.234	1685.23436
538.44	1843.84117
538.646	1797.31882
538.853	1771.94211
539.059	1636.59117
539.265	1949.56482
539.471	1683.11946
539.677	1810.00694
539.883	1716.95736
540.09	1873.44512
540.296	1797.31882
540.502	1917.84915
540.708	1822.69491
540.914	2034.13322
541.12	1941.10744
541.326	2082.7552
541.532	1936.87871
541.738	2051.04564
541.944	1968.59359
542.15	1996.07871
542.356	1860.75783
542.562	2120.80448
542.768	2008.76378
542.974	2051.04564
543.18	2038.36137
543.386	2106.00783
543.592	1936.87871
543.798	2175.76011
544.004	2038.36137
544.21	2179.98724
544.415	2063.72965
544.621	2190.55492
544.827	1983.3934
545.033	2144.0556
545.239	2118.6907
545.445	2266.63582
545.651	1968.59359
545.856	2220.14328
546.062	2110.23548
546.268	2446.2225
546.474	2211.68964
546.679	2213.80306
546.885	2099.66629
547.091	2228.59679
547.297	2190.55492
547.502	2251.84321
547.708	2201.12238
547.914	2268.74901
548.119	2253.95647
548.325	2334.25335
548.531	2234.93683
548.736	2412.42356
548.942	2355.3818
549.147	2475.7943
549.353	2304.67187
549.559	2558.16128
549.764	2384.95994
549.97	2461.00867
550.175	2452.55949
550.381	2659.5113
550.586	2425.09848
550.792	2558.16128
550.997	2473.6821
551.203	2602.50537
551.408	2722.84041
551.614	2754.50057
551.819	2583.5014
552.025	2674.28912
552.23	2469.45767
552.435	2733.39413
552.641	2718.61883
552.846	2748.16877
553.052	2627.84245
553.257	2665.84473
553.462	2553.93776
553.668	2864.23212
553.873	2651.06655
554.078	2925.41202
554.283	2807.26077
554.489	2940.17775
554.694	2720.72963
554.899	2988.6886
555.105	2760.83224
555.31	2703.8429
555.515	2566.60818
555.72	2855.79256
555.925	2718.61883
556.131	2999.23339
556.336	2836.80274
556.541	3075.14456
556.746	2712.28637
556.951	2954.94276
557.156	2762.94277
557.361	3068.8194
557.567	2862.12225
557.772	3132.06464
557.977	2952.83351
558.182	3123.63277
558.387	3075.14456
558.592	3115.20064
558.797	2864.23212
559.002	2897.98805
559.207	2904.31687
559.412	3028.75677
559.617	2976.03436
559.822	3271.15282
560.027	3203.7251
560.232	3182.65045
560.437	3058.27714
560.642	3313.28637
560.847	3070.9278
561.051	3250.08349
561.256	3136.28048
561.461	3332.24424
561.666	3127.84873
561.871	3393.32113
562.076	3030.86547
562.281	3323.81869
562.485	3108.87637
562.69	3540.6865
562.895	3201.61771
563.1	3424.90683
563.305	3138.38837
563.509	3387.00351
563.714	3184.75799
563.919	3530.16335
564.123	3191.0805
564.328	3317.49935
564.533	3328.0315
564.737	3452.27786
564.942	3342.77578
565.147	3521.7445
565.351	3416.48436
565.556	3645.89246
565.761	3397.53278
565.965	3435.4345
566.17	3439.64545
566.374	3353.30689
566.579	3473.33044
566.784	3687.96165
566.988	3517.53496
567.193	3612.23164
567.397	3538.5819
567.602	3629.06265
567.806	3340.66951
568.011	3824.63326
568.215	3629.06265
568.42	3898.19125
568.624	3513.32535
568.828	3721.6115
569.033	3460.69911
569.237	3732.12607
569.442	3633.27022
569.646	3589.08704
569.85	3597.50352
570.055	3950.71763
570.259	3803.61223
570.463	3896.08993
570.668	3742.64015
570.872	3908.69753
571.076	3759.46167
571.281	3927.60758
571.485	3990.62922
571.689	3967.52341
571.893	3849.85589
572.098	3845.65231
572.302	3650.09972
572.506	4013.73255
572.71	3681.65176
572.914	4013.73255
573.119	4003.23134
573.323	3833.04112
573.527	3725.81739
573.731	3881.38015
573.935	3851.95764
574.139	4112.4187
574.343	3936.01152
574.547	3954.9192
574.751	4074.62942
574.955	4234.13792
575.159	3919.20331
575.364	4068.33055
575.568	4034.73343
575.772	4185.87846
575.976	3921.30441
576.18	4108.22023
576.383	4114.51791
576.587	4330.62297
576.791	4026.33333
576.995	4328.52596
577.199	4108.22023
577.403	4185.87846
577.607	4263.50774
577.811	4351.59196
578.015	4053.63246
578.219	4238.33387
578.422	4150.20122
578.626	4318.04055
578.83	4118.71626
579.034	4236.23591
579.238	4336.9139
579.442	4536.02494
579.645	4135.50883
579.849	4456.40426
580.053	4448.02129
