Data from mixed_try6.1_USB4F045381__11__00295.txt Node

Date: Thu Apr 03 20:32:05 EDT 2025
User: mmckonesweet
Spectrometer: USB4F04538
Trigger mode: 4
Integration Time (sec): 2.700000E-3
Scans to average: 1
Electric dark correction enabled: true
Nonlinearity correction enabled: true
Boxcar width: 0
XAxis mode: Wavelengths
Number of Pixels in Spectrum: 3648
>>>>>Begin Spectral Data<<<<<
345.52	5.09289
345.736	5.09289
345.952	5.09289
346.168	-11.7658
346.384	-11.7658
346.6	7.20034
346.816	-30.72997
347.032	-11.7658
347.248	2.98547
347.464	36.70708
347.68	-56.01241
347.896	78.86748
348.112	28.27611
348.328	-39.15785
348.544	2.98547
348.76	-47.58533
348.975	28.27611
349.191	-58.11912
349.407	-39.15785
349.623	13.52282
349.839	-62.33245
350.055	-5.44397
350.27	-5.44397
350.486	-15.98024
350.702	-26.51589
350.918	11.4153
351.133	45.13842
351.349	-9.65855
351.565	30.38382
351.781	38.81488
351.996	11.4153
352.212	-5.44397
352.428	13.52282
352.644	7.20034
352.859	28.27611
353.075	21.95313
353.291	-5.44397
353.506	2.98547
353.722	-87.61033
353.938	-32.83698
354.153	-3.33665
354.369	-60.2258
354.584	-30.72997
354.8	47.24632
355.016	17.73793
355.231	-28.62294
355.447	-60.2258
355.662	59.89417
355.878	36.70708
356.093	38.81488
356.309	11.4153
356.524	-39.15785
356.74	45.13842
356.955	7.20034
357.171	21.95313
357.386	-13.87303
357.602	30.38382
357.817	-68.65227
358.033	19.84552
358.248	-28.62294
358.464	-3.33665
358.679	-1.2293
358.895	-26.51589
359.11	5.09289
359.325	-34.94396
359.541	-13.87303
359.756	11.4153
359.972	28.27611
360.187	-5.44397
360.402	2.98547
360.618	15.63036
360.833	-1.2293
361.048	17.73793
361.264	53.57014
361.479	13.52282
361.694	2.98547
361.909	-51.79892
362.125	-18.08741
362.34	45.13842
362.555	-34.94396
362.77	28.27611
362.986	-22.3017
363.201	-1.2293
363.416	9.30781
363.631	59.89417
363.847	13.52282
364.062	-15.98024
364.277	-64.43909
364.492	53.57014
364.707	-11.7658
364.922	-81.29121
365.138	-45.4785
365.353	-53.90568
365.568	5.09289
365.783	7.20034
365.998	-56.01241
366.213	30.38382
366.428	-5.44397
366.643	21.95313
366.858	-24.40881
367.073	-5.44397
367.288	-47.58533
367.503	7.20034
367.718	-9.65855
367.933	7.20034
368.148	26.16843
368.363	15.63036
368.578	19.84552
368.793	-1.2293
369.008	47.24632
369.223	-5.44397
369.438	-15.98024
369.653	32.49155
369.868	7.20034
370.083	28.27611
370.298	-20.19457
370.513	13.52282
370.728	-60.2258
370.943	-53.90568
371.157	-3.33665
371.372	-60.2258
371.587	-26.51589
371.802	19.84552
372.017	-22.3017
372.232	-18.08741
372.446	64.1103
372.661	19.84552
372.876	13.52282
373.091	28.27611
373.306	-68.65227
373.52	-64.43909
373.735	43.03055
373.95	47.24632
374.165	-18.08741
374.379	-22.3017
374.594	19.84552
374.809	-9.65855
375.023	-51.79892
375.238	13.52282
375.453	24.06077
375.667	76.75925
375.882	-32.83698
376.097	62.00222
376.311	45.13842
376.526	28.27611
376.741	-47.58533
376.955	24.06077
377.17	-9.65855
377.384	57.78613
377.599	-11.7658
377.813	53.57014
378.028	106.2766
378.242	-28.62294
378.457	-20.19457
378.672	97.84262
378.886	-72.86535
379.101	-11.7658
379.315	-28.62294
379.53	-11.7658
379.744	-3.33665
379.958	-70.75882
380.173	-9.65855
380.387	-18.08741
380.602	-1.2293
380.816	-45.4785
381.031	7.20034
381.245	30.38382
381.459	2.98547
381.674	-39.15785
381.888	40.92271
382.103	-11.7658
382.317	26.16843
382.531	78.86748
382.746	-34.94396
382.96	15.63036
383.174	95.73419
383.388	-39.15785
383.603	7.20034
383.817	32.49155
384.031	5.09289
384.246	40.92271
384.46	-22.3017
384.674	26.16843
384.888	-64.43909
385.103	66.2184
385.317	-22.3017
385.531	-70.75882
385.745	-32.83698
385.959	15.63036
386.174	-9.65855
386.388	19.84552
386.602	-11.7658
386.816	-64.43909
387.03	-43.37164
387.244	-5.44397
387.458	5.09289
387.672	28.27611
387.887	-9.65855
388.101	2.98547
388.315	-39.15785
388.529	-45.4785
388.743	-3.33665
388.957	-49.69214
389.171	28.27611
389.385	45.13842
389.599	-15.98024
389.813	19.84552
390.027	36.70708
390.241	57.78613
390.455	24.06077
390.669	19.84552
390.883	-30.72997
391.097	-28.62294
391.311	-18.08741
391.525	21.95313
391.738	-3.33665
391.952	11.4153
392.166	2.98547
392.38	-13.87303
392.594	-28.62294
392.808	13.52282
393.022	15.63036
393.236	5.09289
393.449	-13.87303
393.663	-5.44397
393.877	-49.69214
394.091	36.70708
394.305	-45.4785
394.518	17.73793
394.732	59.89417
394.946	-39.15785
395.16	-28.62294
395.373	5.09289
395.587	2.98547
395.801	-22.3017
396.015	53.57014
396.228	-37.05092
396.442	15.63036
396.656	-13.87303
396.869	9.30781
397.083	11.4153
397.297	-7.55127
397.51	-37.05092
397.724	-39.15785
397.938	0.87808
398.151	137.90711
398.365	-9.65855
398.578	15.63036
398.792	-28.62294
399.005	-26.51589
399.219	-9.65855
399.433	-28.62294
399.646	112.60231
399.86	0.87808
400.073	53.57014
400.287	-45.4785
400.5	-72.86535
400.714	28.27611
400.927	45.13842
401.141	40.92271
401.354	51.46218
401.567	-26.51589
401.781	-1.2293
401.994	2.98547
402.208	0.87808
402.421	-89.71665
402.635	-39.15785
402.848	-53.90568
403.061	19.84552
403.275	55.67812
403.488	19.84552
403.701	38.81488
403.915	-49.69214
404.128	49.35423
404.341	34.5993
404.555	0.87808
404.768	13.52282
404.981	13.52282
405.195	-22.3017
405.408	-39.15785
405.621	13.52282
405.834	-13.87303
406.048	80.97574
406.261	53.57014
406.474	13.52282
406.687	19.84552
406.9	55.67812
407.114	-11.7658
407.327	24.06077
407.54	-5.44397
407.753	-18.08741
407.966	-26.51589
408.179	19.84552
408.392	-7.55127
408.605	53.57014
408.819	21.95313
409.032	-49.69214
409.245	59.89417
409.458	-20.19457
409.671	-41.26476
409.884	-22.3017
410.097	-37.05092
410.31	70.43467
410.523	-47.58533
410.736	-1.2293
410.949	-30.72997
411.162	-11.7658
411.375	15.63036
411.588	-39.15785
411.801	-56.01241
412.014	28.27611
412.227	-64.43909
412.44	-9.65855
412.653	-34.94396
412.865	-9.65855
413.078	-39.15785
413.291	28.27611
413.504	-26.51589
413.717	47.24632
413.93	-47.58533
414.143	28.27611
414.356	-15.98024
414.568	15.63036
414.781	47.24632
414.994	5.09289
415.207	-47.58533
415.42	11.4153
415.632	-28.62294
415.845	-3.33665
416.058	15.63036
416.271	-56.01241
416.483	-22.3017
416.696	2.98547
416.909	-56.01241
417.121	-9.65855
417.334	-22.3017
417.547	64.1103
417.759	-56.01241
417.972	-47.58533
418.185	19.84552
418.397	11.4153
418.61	-56.01241
418.823	28.27611
419.035	7.20034
419.248	-11.7658
419.46	-20.19457
419.673	36.70708
419.885	40.92271
420.098	55.67812
420.311	-13.87303
420.523	2.98547
420.736	11.4153
420.948	64.1103
421.161	-68.65227
421.373	40.92271
421.586	40.92271
421.798	72.54284
422.01	-37.05092
422.223	21.95313
422.435	13.52282
422.648	24.06077
422.86	36.70708
423.073	38.81488
423.285	5.09289
423.497	7.20034
423.71	-15.98024
423.922	7.20034
424.134	-26.51589
424.347	15.63036
424.559	-15.98024
424.771	-18.08741
424.984	-64.43909
425.196	-5.44397
425.408	-85.50398
425.621	-37.05092
425.833	32.49155
426.045	-30.72997
426.257	45.13842
426.47	40.92271
426.682	28.27611
426.894	-56.01241
427.106	13.52282
427.318	7.20034
427.531	2.98547
427.743	91.51738
427.955	62.00222
428.167	-18.08741
428.379	55.67812
428.591	7.20034
428.804	-1.2293
429.016	-28.62294
429.228	-11.7658
429.44	15.63036
429.652	-28.62294
429.864	-13.87303
430.076	0.87808
430.288	72.54284
430.5	51.46218
430.712	-89.71665
430.924	-64.43909
431.136	-53.90568
431.348	36.70708
431.56	80.97574
431.772	55.67812
431.984	-39.15785
432.196	49.35423
432.408	-15.98024
432.62	2.98547
432.832	-13.87303
433.044	83.08402
433.256	28.27611
433.468	36.70708
433.679	17.73793
433.891	-13.87303
434.103	38.81488
434.315	-56.01241
434.527	-62.33245
434.739	-3.33665
434.95	-13.87303
435.162	-43.37164
435.374	-13.87303
435.586	-13.87303
435.798	5.09289
436.009	-5.44397
436.221	7.20034
436.433	11.4153
436.645	47.24632
436.856	-26.51589
437.068	36.70708
437.28	40.92271
437.491	2.98547
437.703	15.63036
437.915	-18.08741
438.126	30.38382
438.338	-13.87303
438.55	-28.62294
438.761	-34.94396
438.973	-47.58533
439.184	91.51738
439.396	62.00222
439.608	36.70708
439.819	-1.2293
440.031	-3.33665
440.242	53.57014
440.454	7.20034
440.665	36.70708
440.877	-15.98024
441.088	-41.26476
441.3	15.63036
441.511	-5.44397
441.723	47.24632
441.934	-1.2293
442.146	-47.58533
442.357	-70.75882
442.569	59.89417
442.78	5.09289
442.991	-30.72997
443.203	2.98547
443.414	53.57014
443.626	62.00222
443.837	-30.72997
444.048	-39.15785
444.26	-3.33665
444.471	99.95108
444.682	7.20034
444.894	-3.33665
445.105	-5.44397
445.316	-7.55127
445.528	-11.7658
445.739	-81.29121
445.95	-45.4785
446.161	-39.15785
446.373	11.4153
446.584	-34.94396
446.795	-30.72997
447.006	7.20034
447.217	21.95313
447.429	43.03055
447.64	72.54284
447.851	43.03055
448.062	24.06077
448.273	74.65103
448.484	-1.2293
448.695	62.00222
448.907	-39.15785
449.118	49.35423
449.329	15.63036
449.54	62.00222
449.751	-34.94396
449.962	40.92271
450.173	-9.65855
450.384	2.98547
450.595	17.73793
450.806	-22.3017
451.017	-39.15785
451.228	-30.72997
451.439	-22.3017
451.65	51.46218
451.861	21.95313
452.072	-39.15785
452.283	15.63036
452.494	30.38382
452.705	53.57014
452.915	43.03055
453.126	2.98547
453.337	-22.3017
453.548	-13.87303
453.759	-32.83698
453.97	43.03055
454.181	-11.7658
454.391	62.00222
454.602	36.70708
454.813	24.06077
455.024	36.70708
455.235	11.4153
455.445	-5.44397
455.656	28.27611
455.867	45.13842
456.078	-30.72997
456.288	-3.33665
456.499	-39.15785
456.71	45.13842
456.921	15.63036
457.131	-13.87303
457.342	24.06077
457.553	19.84552
457.763	-22.3017
457.974	11.4153
458.184	11.4153
458.395	51.46218
458.606	47.24632
458.816	-87.61033
459.027	15.63036
459.237	-45.4785
459.448	-3.33665
459.659	-18.08741
459.869	2.98547
460.08	-22.3017
460.29	28.27611
460.501	-13.87303
460.711	-18.08741
460.922	13.52282
461.132	-37.05092
461.343	66.2184
461.553	21.95313
461.764	2.98547
461.974	2.98547
462.184	45.13842
462.395	-7.55127
462.605	-45.4785
462.816	-37.05092
463.026	32.49155
463.236	2.98547
463.447	-51.79892
463.657	2.98547
463.867	-47.58533
464.078	30.38382
464.288	2.98547
464.498	11.4153
464.709	-49.69214
464.919	28.27611
465.129	-13.87303
465.339	-47.58533
465.55	28.27611
465.76	53.57014
465.97	30.38382
466.18	30.38382
466.391	-70.75882
466.601	-9.65855
466.811	49.35423
467.021	80.97574
467.231	-47.58533
467.441	-64.43909
467.651	55.67812
467.862	17.73793
468.072	83.08402
468.282	-3.33665
468.492	55.67812
468.702	-22.3017
468.912	57.78613
469.122	7.20034
469.332	21.95313
469.542	-62.33245
469.752	104.16807
469.962	85.19233
470.172	45.13842
470.382	-5.44397
470.592	30.38382
470.802	5.09289
471.012	2.98547
471.222	7.20034
471.432	32.49155
471.642	36.70708
471.852	-66.54569
472.062	-1.2293
472.272	-74.97185
472.482	-9.65855
472.691	-20.19457
472.901	-41.26476
473.111	-62.33245
473.321	40.92271
473.531	11.4153
473.741	38.81488
473.95	83.08402
474.16	-20.19457
474.37	28.27611
474.58	17.73793
474.79	38.81488
474.999	36.70708
475.209	-7.55127
475.419	32.49155
475.628	51.46218
475.838	40.92271
476.048	32.49155
476.258	78.86748
476.467	55.67812
476.677	19.84552
476.886	-1.2293
477.096	-20.19457
477.306	2.98547
477.515	5.09289
477.725	87.30066
477.935	11.4153
478.144	-24.40881
478.354	5.09289
478.563	28.27611
478.773	-13.87303
478.982	19.84552
479.192	47.24632
479.401	36.70708
479.611	2.98547
479.82	11.4153
480.03	-3.33665
480.239	-26.51589
480.449	19.84552
480.658	-11.7658
480.868	97.84262
481.077	32.49155
481.287	-5.44397
481.496	34.5993
481.705	17.73793
481.915	30.38382
482.124	-30.72997
482.333	13.52282
482.543	45.13842
482.752	-13.87303
482.961	21.95313
483.171	32.49155
483.38	38.81488
483.589	-11.7658
483.799	47.24632
484.008	55.67812
484.217	36.70708
484.426	38.81488
484.636	87.30066
484.845	32.49155
485.054	38.81488
485.263	7.20034
485.472	72.54284
485.682	53.57014
485.891	30.38382
486.1	62.00222
486.309	5.09289
486.518	68.32652
486.727	-15.98024
486.936	-72.86535
487.146	57.78613
487.355	-1.2293
487.564	15.63036
487.773	-9.65855
487.982	38.81488
488.191	62.00222
488.4	24.06077
488.609	-30.72997
488.818	-64.43909
489.027	49.35423
489.236	0.87808
489.445	49.35423
489.654	45.13842
489.863	11.4153
490.072	62.00222
490.281	47.24632
490.49	78.86748
490.698	80.97574
490.907	45.13842
491.116	11.4153
491.325	32.49155
491.534	85.19233
491.743	80.97574
491.952	24.06077
492.16	57.78613
492.369	104.16807
492.578	13.52282
492.787	-45.4785
492.996	19.84552
493.204	-11.7658
493.413	19.84552
493.622	-3.33665
493.831	62.00222
494.039	-18.08741
494.248	21.95313
494.457	-20.19457
494.665	11.4153
494.874	116.81956
495.083	142.12488
495.291	74.65103
495.5	55.67812
495.709	11.4153
495.917	78.86748
496.126	32.49155
496.335	40.92271
496.543	38.81488
496.752	53.57014
496.96	104.16807
497.169	28.27611
497.377	19.84552
497.586	51.46218
497.794	38.81488
498.003	112.60231
498.211	83.08402
498.42	28.27611
498.628	2.98547
498.837	40.92271
499.045	-1.2293
499.254	13.52282
499.462	78.86748
499.671	30.38382
499.879	47.24632
500.087	-30.72997
500.296	62.00222
500.504	26.16843
500.713	-1.2293
500.921	70.43467
501.129	-20.19457
501.338	24.06077
501.546	19.84552
501.754	11.4153
501.962	66.2184
502.171	53.57014
502.379	-13.87303
502.587	66.2184
502.795	24.06077
503.004	62.00222
503.212	62.00222
503.42	47.24632
503.628	45.13842
503.837	51.46218
504.045	21.95313
504.253	104.16807
504.461	74.65103
504.669	87.30066
504.877	64.1103
505.085	89.40901
505.294	40.92271
505.502	53.57014
505.71	72.54284
505.918	64.1103
506.126	87.30066
506.334	43.03055
506.542	28.27611
506.75	125.25432
506.958	34.5993
507.166	19.84552
507.374	5.09289
507.582	91.51738
507.79	89.40901
507.998	53.57014
508.206	112.60231
508.414	34.5993
508.622	24.06077
508.83	11.4153
509.037	129.47183
509.245	-9.65855
509.453	5.09289
509.661	13.52282
509.869	110.49372
510.077	13.52282
510.285	5.09289
510.492	95.73419
510.7	24.06077
510.908	123.1456
511.116	102.05957
511.324	135.79826
511.531	129.47183
511.739	57.78613
511.947	62.00222
512.155	95.73419
512.362	118.92822
512.57	19.84552
512.778	55.67812
512.985	70.43467
513.193	97.84262
513.401	59.89417
513.608	121.0369
513.816	36.70708
514.024	64.1103
514.231	91.51738
514.439	62.00222
514.646	148.45169
514.854	62.00222
515.061	53.57014
515.269	83.08402
515.477	110.49372
515.684	70.43467
515.892	70.43467
516.099	72.54284
516.307	55.67812
516.514	163.21498
516.722	99.95108
516.929	70.43467
517.136	135.79826
517.344	74.65103
517.551	47.24632
517.759	66.2184
517.966	76.75925
518.173	121.0369
518.381	87.30066
518.588	173.76082
518.796	104.16807
519.003	57.78613
519.21	99.95108
519.418	40.92271
519.625	78.86748
519.832	93.62577
520.039	121.0369
520.247	125.25432
520.454	78.86748
520.661	62.00222
520.868	131.58062
521.076	19.84552
521.283	99.95108
521.49	72.54284
521.697	47.24632
521.904	87.30066
522.112	112.60231
522.319	129.47183
522.526	156.88773
522.733	55.67812
522.94	97.84262
523.147	106.2766
523.354	99.95108
523.561	87.30066
523.768	72.54284
523.975	171.65161
524.183	137.90711
524.39	108.38515
524.597	154.77869
524.804	38.81488
525.011	112.60231
525.218	129.47183
525.425	91.51738
525.632	129.47183
525.838	47.24632
526.045	142.12488
526.252	85.19233
526.459	89.40901
526.666	53.57014
526.873	171.65161
527.08	146.34273
527.287	146.34273
527.494	148.45169
527.701	80.97574
527.907	129.47183
528.114	99.95108
528.321	161.10588
528.528	104.16807
528.735	129.47183
528.941	173.76082
529.148	171.65161
529.355	137.90711
529.562	125.25432
529.768	173.76082
529.975	154.77869
530.182	150.56067
530.388	207.51095
530.595	220.16857
530.802	190.63523
531.008	64.1103
531.215	144.23379
531.422	148.45169
531.628	137.90711
531.835	118.92822
532.042	177.9793
532.248	129.47183
532.455	112.60231
532.661	97.84262
532.868	234.9367
533.074	190.63523
533.281	245.48595
533.487	177.9793
533.694	144.23379
533.9	184.30718
534.107	163.21498
534.313	146.34273
534.52	222.27825
534.726	114.71092
534.933	232.82691
535.139	205.40141
535.345	196.96348
535.552	188.52586
535.758	196.96348
535.965	112.60231
536.171	171.65161
536.377	230.71714
536.584	180.08857
536.79	188.52586
536.996	182.19786
537.203	140.01598
537.409	224.38794
537.615	154.77869
537.821	137.90711
538.028	245.48595
538.234	249.70578
538.44	154.77869
538.646	264.47581
538.853	169.54242
539.059	209.6205
539.265	344.67174
539.471	241.26619
539.677	249.70578
539.883	182.19786
540.09	218.05892
540.296	266.58589
540.502	226.49765
540.708	230.71714
540.914	196.96348
541.12	243.37606
541.326	239.15634
541.532	247.59586
541.738	232.82691
541.944	196.96348
542.15	241.26619
542.356	270.8061
542.562	167.43326
542.768	241.26619
542.974	268.69598
543.18	180.08857
543.386	222.27825
543.592	275.02639
543.798	315.12283
544.004	222.27825
544.21	268.69598
544.415	277.13656
544.621	196.96348
544.827	315.12283
545.033	243.37606
545.239	260.25571
545.445	336.22884
545.651	247.59586
545.856	291.9083
546.062	226.49765
546.268	296.12896
546.474	285.57744
546.679	260.25571
546.885	258.14568
547.091	266.58589
547.297	315.12283
547.502	283.46719
547.708	327.78622
547.914	315.12283
548.119	334.11816
548.325	348.89329
548.531	298.23931
548.736	302.46008
548.942	260.25571
549.147	218.05892
549.353	317.23335
549.559	401.66845
549.764	289.79799
549.97	443.89597
550.175	348.89329
550.381	361.55837
550.586	249.70578
550.792	344.67174
550.997	361.55837
551.203	386.89035
551.408	317.23335
551.614	416.44736
551.819	357.33661
552.025	424.8928
552.23	386.89035
552.435	327.78622
552.641	405.89092
552.846	353.11491
553.052	310.90184
553.257	399.55725
553.462	401.66845
553.668	393.22373
553.873	304.5705
554.078	408.00217
554.283	361.55837
554.489	534.70585
554.694	348.89329
554.899	386.89035
555.105	351.00409
555.31	401.66845
555.515	511.47284
555.72	475.57071
555.925	424.8928
556.131	488.24157
556.336	391.11258
556.541	557.94055
556.746	467.12378
556.951	460.78874
557.156	405.89092
557.361	467.12378
557.567	382.66819
557.772	473.45896
557.977	441.78444
558.182	492.4653
558.387	517.80894
558.592	393.22373
558.797	471.34722
559.002	530.48154
559.207	437.56144
559.412	526.25728
559.617	488.24157
559.822	526.25728
560.027	505.13686
560.232	574.83955
560.437	513.58486
560.642	484.01789
560.847	530.48154
561.051	574.83955
561.256	513.58486
561.461	517.80894
561.666	522.03308
561.871	452.34223
562.076	587.51435
562.281	593.85193
562.485	486.12972
562.69	570.61472
562.895	581.17689
563.1	560.05288
563.305	492.4653
563.509	739.64646
563.714	475.57071
563.919	585.40185
564.123	610.75271
564.328	598.07705
564.533	494.57719
564.737	572.72712
564.942	572.72712
565.147	587.51435
565.351	648.7824
565.556	663.57279
565.761	576.95198
565.965	771.34792
566.17	593.85193
566.374	568.50232
566.579	678.36375
566.784	560.05288
566.988	646.66954
567.193	695.26839
567.397	545.26687
567.602	572.72712
567.806	595.96448
568.011	604.41482
568.215	581.17689
568.42	602.30222
568.624	610.75271
568.828	745.98656
569.033	627.6543
569.237	750.21336
569.442	672.02469
569.646	562.16522
569.85	648.7824
570.055	762.89398
570.259	758.66706
570.463	691.04216
570.668	707.94735
570.872	697.38152
571.076	707.94735
571.281	731.19313
571.485	669.9117
571.689	838.98507
571.893	691.04216
572.098	737.53311
572.302	655.12107
572.506	781.91558
572.71	745.98656
572.914	775.57496
573.119	754.44019
573.323	902.40317
573.527	731.19313
573.731	832.64368
573.935	722.73996
574.139	758.66706
574.343	779.80203
574.547	838.98507
574.751	765.00745
574.955	898.17507
575.159	686.81598
575.364	830.52991
575.568	684.7029
575.772	965.82836
575.976	762.89398
576.18	902.40317
576.383	714.28698
576.587	838.98507
576.791	908.74539
576.995	860.12359
577.199	832.64368
577.403	999.65772
577.607	872.80712
577.811	942.57169
578.015	756.55362
578.219	948.91433
578.422	779.80203
578.626	976.39985
578.83	838.98507
579.034	1058.86295
579.238	974.28554
579.442	1001.77211
579.645	923.54416
579.849	940.45749
580.053	887.60495
580.257	932.00077
580.46	915.08767
580.664	1041.9467
580.868	963.71408
581.071	929.8866
581.275	1006.00091
581.479	951.02856
581.682	1016.57302
581.886	1033.48871
582.09	870.69318
582.293	923.54416
582.497	1084.23797
582.7	1109.61373
582.904	995.42896
583.107	1071.55036
583.311	948.91433
583.515	1196.31908
583.718	1016.57302
583.922	1052.51931
584.125	1060.9775
584.329	1134.99018
