Data from mixed_try6.1_USB4F045381__9__00293.txt Node

Date: Thu Apr 03 20:32:05 EDT 2025
User: mmckonesweet
Spectrometer: USB4F04538
Trigger mode: 4
Integration Time (sec): 2.700000E-3
Scans to average: 1
Electric dark correction enabled: true
Nonlinearity correction enabled: true
Boxcar width: 0
XAxis mode: Wavelengths
Number of Pixels in Spectrum: 3648
>>>>>Begin Spectral Data<<<<<
345.52	-3.68787
345.736	-3.68787
345.952	-3.68787
346.168	4.74166
346.384	65.86705
346.6	72.19148
346.816	17.38667
347.032	-22.65289
347.248	-39.50901
347.464	-47.93647
347.68	4.74166
347.896	-16.33143
348.112	-18.43861
348.328	-1.58052
348.544	13.17157
348.76	-1.58052
348.975	40.5714
349.191	49.00291
349.407	-37.40208
349.623	4.74166
349.839	-43.72279
350.055	80.62436
350.27	-7.90249
350.486	-3.68787
350.702	59.54283
350.918	-45.82964
351.133	65.86705
351.349	13.17157
351.565	4.74166
351.781	-12.11701
351.996	-7.90249
352.212	-7.90249
352.428	8.95656
352.644	78.51611
352.859	-1.58052
353.075	-73.21644
353.291	-54.2568
353.506	-37.40208
353.722	-12.11701
353.938	6.8491
354.153	4.74166
354.369	-62.68356
354.584	15.2791
354.8	36.35578
355.016	-37.40208
355.231	57.4348
355.447	-52.15005
355.662	-10.00976
355.878	0.52684
356.093	-45.82964
356.309	32.14026
356.524	57.4348
356.74	40.5714
356.955	-28.97412
357.171	38.46358
357.386	65.86705
357.602	70.08331
357.817	-16.33143
358.033	40.5714
358.248	32.14026
358.464	11.06405
358.679	63.75895
358.895	13.17157
359.11	25.81715
359.325	4.74166
359.541	55.32679
359.756	59.54283
359.972	-1.58052
360.187	63.75895
360.402	51.11085
360.618	-12.11701
360.833	27.92483
361.048	-45.82964
361.264	40.5714
361.479	74.29967
361.694	-7.90249
361.909	-12.11701
362.125	-3.68787
362.34	84.84094
362.555	21.60186
362.77	-1.58052
362.986	-18.43861
363.201	114.35949
363.416	8.95656
363.631	118.57677
363.847	42.67924
364.062	46.895
364.277	-28.97412
364.492	38.46358
364.707	13.17157
364.922	38.46358
365.138	-20.54576
365.353	23.70949
365.568	0.52684
365.783	46.895
365.998	0.52684
366.213	46.895
366.428	32.14026
366.643	82.73264
366.858	-1.58052
367.073	21.60186
367.288	-7.90249
367.503	15.2791
367.718	-12.11701
367.933	8.95656
368.148	-24.75999
368.363	25.81715
368.578	34.24801
368.793	6.8491
369.008	46.895
369.223	30.03253
369.438	65.86705
369.653	0.52684
369.868	65.86705
370.083	25.81715
370.298	32.14026
370.513	-7.90249
370.728	-20.54576
370.943	74.29967
371.157	21.60186
371.372	-14.22423
371.587	17.38667
371.802	-12.11701
372.017	-37.40208
372.232	17.38667
372.446	122.79415
372.661	32.14026
372.876	-26.86706
373.091	-62.68356
373.306	-28.97412
373.52	63.75895
373.735	17.38667
373.95	42.67924
374.165	-37.40208
374.379	-5.79519
374.594	57.4348
374.809	-39.50901
375.023	-18.43861
375.238	-5.79519
375.453	46.895
375.667	-22.65289
375.882	-43.72279
376.097	6.8491
376.311	-28.97412
376.526	-26.86706
376.741	-28.97412
376.955	-12.11701
377.17	-12.11701
377.384	40.5714
377.599	46.895
377.813	-37.40208
378.028	65.86705
378.242	55.32679
378.457	4.74166
378.672	-62.68356
378.886	-54.2568
379.101	30.03253
379.315	23.70949
379.53	53.21881
379.744	-52.15005
379.958	32.14026
380.173	55.32679
380.387	-33.18815
380.602	15.2791
380.816	-7.90249
381.031	8.95656
381.245	-92.17399
381.459	4.74166
381.674	-20.54576
381.888	-87.96139
382.103	38.46358
382.317	-7.90249
382.531	-22.65289
382.746	55.32679
382.96	-24.75999
383.174	55.32679
383.388	40.5714
383.603	15.2791
383.817	46.895
384.031	-3.68787
384.246	63.75895
384.46	124.90287
384.674	-26.86706
384.888	-54.2568
385.103	-41.61591
385.317	25.81715
385.531	57.4348
385.745	-33.18815
385.959	42.67924
386.174	21.60186
386.388	11.06405
386.602	13.17157
386.816	95.38278
387.03	13.17157
387.244	46.895
387.458	72.19148
387.672	-20.54576
387.887	2.63424
388.101	-43.72279
388.315	21.60186
388.529	15.2791
388.743	-33.18815
388.957	15.2791
389.171	21.60186
389.385	-26.86706
389.599	-35.29512
389.813	21.60186
390.027	-26.86706
390.241	13.17157
390.455	-3.68787
390.669	27.92483
390.883	-1.58052
391.097	-12.11701
391.311	-7.90249
391.525	15.2791
391.738	-3.68787
391.952	-20.54576
392.166	57.4348
392.38	-7.90249
392.594	8.95656
392.808	25.81715
393.022	49.00291
393.236	59.54283
393.449	30.03253
393.663	27.92483
393.877	15.2791
394.091	11.06405
394.305	30.03253
394.518	55.32679
394.732	-1.58052
394.946	8.95656
395.16	11.06405
395.373	74.29967
395.587	-35.29512
395.801	4.74166
396.015	30.03253
396.228	11.06405
396.442	63.75895
396.656	-12.11701
396.869	11.06405
397.083	-12.11701
397.297	-33.18815
397.51	-41.61591
397.724	-7.90249
397.938	15.2791
398.151	-52.15005
398.365	-33.18815
398.578	19.49425
398.792	55.32679
399.005	25.81715
399.219	-45.82964
399.433	-28.97412
399.646	-16.33143
399.86	-41.61591
400.073	-28.97412
400.287	-3.68787
400.5	-54.2568
400.714	32.14026
400.927	-20.54576
401.141	30.03253
401.354	91.16598
401.567	2.63424
401.781	-12.11701
401.994	-3.68787
402.208	4.74166
402.421	67.97517
402.635	11.06405
402.848	21.60186
403.061	110.14229
403.275	-52.15005
403.488	32.14026
403.701	76.40788
403.915	-7.90249
404.128	15.2791
404.341	38.46358
404.555	6.8491
404.768	-41.61591
404.981	6.8491
405.195	8.95656
405.408	4.74166
405.621	21.60186
405.834	89.05761
406.048	44.78711
406.261	-24.75999
406.474	-41.61591
406.687	46.895
406.9	-35.29512
407.114	32.14026
407.327	57.4348
407.54	38.46358
407.753	-37.40208
407.966	-37.40208
408.179	76.40788
408.392	42.67924
408.605	-12.11701
408.819	-12.11701
409.032	2.63424
409.245	-26.86706
409.458	-7.90249
409.671	-52.15005
409.884	-24.75999
410.097	76.40788
410.31	57.4348
410.523	-20.54576
410.736	55.32679
410.949	67.97517
411.162	42.67924
411.375	-20.54576
411.588	-16.33143
411.801	8.95656
412.014	0.52684
412.227	6.8491
412.44	-18.43861
412.653	38.46358
412.865	13.17157
413.078	61.65088
413.291	6.8491
413.504	32.14026
413.717	-20.54576
413.93	-60.57691
414.143	-62.68356
414.356	-12.11701
414.568	-20.54576
414.781	-26.86706
414.994	21.60186
415.207	55.32679
415.42	6.8491
415.632	-28.97412
415.845	30.03253
416.058	46.895
416.271	-50.04327
416.483	51.11085
416.696	40.5714
416.909	-50.04327
417.121	13.17157
417.334	-41.61591
417.547	-35.29512
417.759	97.49122
417.972	17.38667
418.185	25.81715
418.397	-50.04327
418.61	38.46358
418.823	40.5714
419.035	-77.42941
419.248	-14.22423
419.46	-62.68356
419.673	-10.00976
419.885	63.75895
420.098	-92.17399
420.311	-50.04327
420.523	25.81715
420.736	46.895
420.948	-7.90249
421.161	-37.40208
421.373	49.00291
421.586	55.32679
421.798	-39.50901
422.01	46.895
422.223	17.38667
422.435	55.32679
422.648	15.2791
422.86	-35.29512
423.073	30.03253
423.285	-31.08114
423.497	63.75895
423.71	30.03253
423.922	82.73264
424.134	-7.90249
424.347	-60.57691
424.559	13.17157
424.771	6.8491
424.984	38.46358
425.196	57.4348
425.408	51.11085
425.621	-71.10991
425.833	15.2791
426.045	32.14026
426.257	91.16598
426.47	32.14026
426.682	105.92518
426.894	-16.33143
427.106	32.14026
427.318	53.21881
427.531	8.95656
427.743	11.06405
427.955	89.05761
428.167	15.2791
428.379	15.2791
428.591	-39.50901
428.804	-12.11701
429.016	67.97517
429.228	4.74166
429.44	-26.86706
429.652	57.4348
429.864	-10.00976
430.076	15.2791
430.288	13.17157
430.5	89.05761
430.712	21.60186
430.924	55.32679
431.136	63.75895
431.348	61.65088
431.56	-10.00976
431.772	-18.43861
431.984	17.38667
432.196	-75.32294
432.408	65.86705
432.62	-24.75999
432.832	15.2791
433.044	42.67924
433.256	21.60186
433.468	55.32679
433.679	-18.43861
433.891	4.74166
434.103	-14.22423
434.315	-1.58052
434.527	91.16598
434.739	74.29967
434.95	59.54283
435.162	76.40788
435.374	99.59967
435.586	38.46358
435.798	42.67924
436.009	-22.65289
436.221	17.38667
436.433	13.17157
436.645	-3.68787
436.856	-1.58052
437.068	89.05761
437.28	-37.40208
437.491	-20.54576
437.703	110.14229
437.915	-1.58052
438.126	-12.11701
438.338	-28.97412
438.55	49.00291
438.761	21.60186
438.973	34.24801
439.184	49.00291
439.396	30.03253
439.608	-33.18815
439.819	57.4348
440.031	15.2791
440.242	15.2791
440.454	67.97517
440.665	17.38667
440.877	-45.82964
441.088	-26.86706
441.3	-16.33143
441.511	49.00291
441.723	30.03253
441.934	-41.61591
442.146	61.65088
442.357	-28.97412
442.569	51.11085
442.78	-1.58052
442.991	8.95656
443.203	-3.68787
443.414	46.895
443.626	-16.33143
443.837	-10.00976
444.048	57.4348
444.26	-12.11701
444.471	57.4348
444.682	38.46358
444.894	23.70949
445.105	30.03253
445.316	59.54283
445.528	49.00291
445.739	55.32679
445.95	6.8491
446.161	21.60186
446.373	13.17157
446.584	63.75895
446.795	30.03253
447.006	51.11085
447.217	17.38667
447.429	32.14026
447.64	-3.68787
447.851	25.81715
448.062	30.03253
448.273	74.29967
448.484	30.03253
448.695	30.03253
448.907	4.74166
449.118	40.5714
449.329	63.75895
449.54	42.67924
449.751	21.60186
449.962	13.17157
450.173	44.78711
450.384	40.5714
450.595	-12.11701
450.806	38.46358
451.017	89.05761
451.228	-24.75999
451.439	-14.22423
451.65	-14.22423
451.861	4.74166
452.072	23.70949
452.283	49.00291
452.494	21.60186
452.705	-35.29512
452.915	-69.00336
453.126	-79.53586
453.337	63.75895
453.548	2.63424
453.759	17.38667
453.97	-1.58052
454.181	15.2791
454.391	65.86705
454.602	-37.40208
454.813	23.70949
455.024	0.52684
455.235	38.46358
455.445	38.46358
455.656	-5.79519
455.867	-7.90249
456.078	8.95656
456.288	13.17157
456.499	49.00291
456.71	-39.50901
456.921	124.90287
457.131	-7.90249
457.342	13.17157
457.553	-24.75999
457.763	21.60186
457.974	6.8491
458.184	-43.72279
458.395	49.00291
458.606	19.49425
458.816	34.24801
459.027	34.24801
459.237	17.38667
459.448	63.75895
459.659	21.60186
459.869	74.29967
460.08	-39.50901
460.29	34.24801
460.501	82.73264
460.711	-12.11701
460.922	-14.22423
461.132	76.40788
461.343	49.00291
461.553	82.73264
461.764	8.95656
461.974	17.38667
462.184	-43.72279
462.395	23.70949
462.605	38.46358
462.816	67.97517
463.026	61.65088
463.236	-5.79519
463.447	-41.61591
463.657	15.2791
463.867	32.14026
464.078	93.27437
464.288	38.46358
464.498	-39.50901
464.709	21.60186
464.919	13.17157
465.129	23.70949
465.339	13.17157
465.55	15.2791
465.76	-16.33143
465.97	-22.65289
466.18	-1.58052
466.391	8.95656
466.601	36.35578
466.811	63.75895
467.021	25.81715
467.231	-12.11701
467.441	13.17157
467.651	15.2791
467.862	38.46358
468.072	13.17157
468.282	38.46358
468.492	-12.11701
468.702	21.60186
468.912	-10.00976
469.122	21.60186
469.332	-12.11701
469.542	51.11085
469.752	82.73264
469.962	17.38667
470.172	93.27437
470.382	55.32679
470.592	-3.68787
470.802	-37.40208
471.012	38.46358
471.222	23.70949
471.432	-12.11701
471.642	21.60186
471.852	25.81715
472.062	30.03253
472.272	51.11085
472.482	-16.33143
472.691	-18.43861
472.901	-58.47023
473.111	17.38667
473.321	44.78711
473.531	17.38667
473.741	25.81715
473.95	30.03253
474.16	-20.54576
474.37	8.95656
474.58	4.74166
474.79	97.49122
474.999	15.2791
475.209	25.81715
475.419	51.11085
475.628	63.75895
475.838	38.46358
476.048	21.60186
476.258	59.54283
476.467	-12.11701
476.677	-3.68787
476.886	15.2791
477.096	74.29967
477.306	32.14026
477.515	-7.90249
477.725	-10.00976
477.935	-28.97412
478.144	15.2791
478.354	-16.33143
478.563	13.17157
478.773	42.67924
478.982	-1.58052
479.192	67.97517
479.401	57.4348
479.611	34.24801
479.82	49.00291
480.03	25.81715
480.239	13.17157
480.449	11.06405
480.658	8.95656
480.868	6.8491
481.077	27.92483
481.287	-20.54576
481.496	49.00291
481.705	0.52684
481.915	30.03253
482.124	-1.58052
482.333	-7.90249
482.543	21.60186
482.752	65.86705
482.961	30.03253
483.171	72.19148
483.38	-20.54576
483.589	-10.00976
483.799	65.86705
484.008	-1.58052
484.217	38.46358
484.426	70.08331
484.636	15.2791
484.845	-14.22423
485.054	80.62436
485.263	34.24801
485.472	-3.68787
485.682	-5.79519
485.891	51.11085
486.1	-47.93647
486.309	55.32679
486.518	-7.90249
486.727	38.46358
486.936	-16.33143
487.146	57.4348
487.355	72.19148
487.564	99.59967
487.773	72.19148
487.982	44.78711
488.191	91.16598
488.4	38.46358
488.609	44.78711
488.818	-18.43861
489.027	44.78711
489.236	70.08331
489.445	59.54283
489.654	72.19148
489.863	84.84094
490.072	89.05761
490.281	148.10019
490.49	4.74166
490.698	-3.68787
490.907	72.19148
491.116	-3.68787
491.325	63.75895
491.534	-1.58052
491.743	17.38667
491.952	70.08331
492.16	34.24801
492.369	80.62436
492.578	-60.57691
492.787	-22.65289
492.996	82.73264
493.204	120.68545
493.413	105.92518
493.622	-12.11701
493.831	133.33796
494.039	0.52684
494.248	25.81715
494.457	74.29967
494.665	55.32679
494.874	-12.11701
495.083	95.38278
495.291	8.95656
495.5	84.84094
495.709	63.75895
495.917	0.52684
496.126	137.55563
496.335	72.19148
496.543	-16.33143
496.752	122.79415
496.96	63.75895
497.169	4.74166
497.377	21.60186
497.586	-24.75999
497.794	15.2791
498.003	59.54283
498.211	63.75895
498.42	97.49122
498.628	57.4348
498.837	101.70815
499.045	51.11085
499.254	84.84094
499.462	21.60186
499.671	2.63424
499.879	91.16598
500.087	53.21881
500.296	105.92518
500.504	57.4348
500.713	32.14026
500.921	17.38667
501.129	46.895
501.338	91.16598
501.546	-20.54576
501.754	21.60186
501.962	57.4348
502.171	23.70949
502.379	38.46358
502.587	49.00291
502.795	15.2791
503.004	76.40788
503.212	8.95656
503.42	-20.54576
503.628	122.79415
503.837	40.5714
504.045	13.17157
504.253	105.92518
504.461	63.75895
504.669	55.32679
504.877	38.46358
505.085	21.60186
505.294	38.46358
505.502	55.32679
505.71	21.60186
505.918	32.14026
506.126	59.54283
506.334	97.49122
506.542	141.77339
506.75	72.19148
506.958	86.94927
507.166	95.38278
507.374	80.62436
507.582	38.46358
507.79	63.75895
507.998	30.03253
508.206	80.62436
508.414	55.32679
508.622	74.29967
508.83	46.895
509.037	15.2791
509.245	40.5714
509.453	135.44678
509.661	30.03253
509.869	46.895
510.077	76.40788
510.285	91.16598
510.492	49.00291
510.7	103.81665
510.908	108.03372
511.116	38.46358
511.324	6.8491
511.531	74.29967
511.739	143.8823
511.947	65.86705
512.155	135.44678
512.362	53.21881
512.57	89.05761
512.778	30.03253
512.985	30.03253
513.193	46.895
513.401	131.22915
513.608	89.05761
513.816	13.17157
514.024	114.35949
514.231	72.19148
514.439	72.19148
514.646	80.62436
514.854	120.68545
515.061	164.97259
515.269	101.70815
515.477	99.59967
515.684	67.97517
515.892	139.6645
516.099	63.75895
516.307	51.11085
516.514	76.40788
516.722	114.35949
516.929	63.75895
517.136	36.35578
517.344	105.92518
517.551	4.74166
517.759	32.14026
517.966	99.59967
518.173	82.73264
518.381	108.03372
518.588	124.90287
518.796	82.73264
519.003	30.03253
519.21	103.81665
519.418	145.99124
519.625	82.73264
519.832	133.33796
520.039	105.92518
520.247	122.79415
520.454	101.70815
520.661	105.92518
520.868	145.99124
521.076	91.16598
521.283	91.16598
521.49	105.92518
521.697	74.29967
521.904	76.40788
522.112	63.75895
522.319	162.86346
522.526	38.46358
522.733	177.62776
522.94	114.35949
523.147	101.70815
523.354	99.59967
523.561	63.75895
523.768	108.03372
523.975	82.73264
524.183	108.03372
524.39	148.10019
524.597	139.6645
524.804	154.42718
525.011	38.46358
525.218	51.11085
525.425	150.20917
525.632	164.97259
525.838	112.25088
526.045	110.14229
526.252	145.99124
526.459	179.73703
526.666	110.14229
526.873	131.22915
527.08	156.53622
527.287	93.27437
527.494	188.1743
527.701	110.14229
527.907	118.57677
528.114	84.84094
528.321	116.46812
528.528	133.33796
528.735	175.51851
528.941	200.83082
529.148	167.08173
529.355	99.59967
529.562	232.47528
529.768	160.75436
529.975	173.40929
530.182	224.03632
530.388	118.57677
530.595	141.77339
530.802	89.05761
531.008	173.40929
531.215	133.33796
531.422	173.40929
531.628	89.05761
531.835	245.1343
532.042	133.33796
532.248	162.86346
532.455	179.73703
532.661	133.33796
532.868	173.40929
533.074	198.72135
533.281	148.10019
533.487	198.72135
533.694	154.42718
533.9	217.70731
534.107	141.77339
534.313	194.50247
534.52	139.6645
534.726	160.75436
534.933	173.40929
535.139	162.86346
535.345	190.28367
535.552	224.03632
535.758	194.50247
535.965	240.91455
536.171	194.50247
536.377	226.14603
536.584	190.28367
536.79	266.2342
536.996	164.97259
537.203	221.92663
537.409	202.94032
537.615	245.1343
537.821	329.54508
538.028	139.6645
538.234	234.58507
538.44	198.72135
538.646	245.1343
538.853	262.01407
539.059	202.94032
539.265	181.84631
539.471	234.58507
539.677	211.37848
539.883	217.70731
540.09	257.79401
540.296	259.90403
540.502	183.95562
540.708	156.53622
540.914	245.1343
541.12	245.1343
541.326	276.78487
541.532	175.51851
541.738	236.69488
541.944	224.03632
542.15	253.57403
542.356	211.37848
542.562	179.73703
542.768	262.01407
542.974	378.09425
543.18	274.6747
543.386	378.09425
543.592	308.43963
543.798	253.57403
544.004	259.90403
544.21	209.26891
544.415	287.336
544.621	325.32385
544.827	276.78487
545.033	272.56455
545.239	293.6669
545.445	367.53931
545.651	337.98775
545.856	285.22573
546.062	266.2342
546.268	308.43963
546.474	302.10835
546.679	295.77723
546.885	274.6747
547.091	293.6669
547.297	359.09566
547.502	238.8047
547.708	287.336
547.914	295.77723
548.119	253.57403
548.325	342.2092
548.531	257.79401
548.736	346.43071
548.942	234.58507
549.147	337.98775
549.353	352.76311
549.559	367.53931
549.764	306.32919
549.97	333.76638
550.175	342.2092
550.381	413.98415
550.586	365.42837
550.792	378.09425
550.997	245.1343
551.203	308.43963
551.408	365.42837
551.614	371.76124
551.819	439.32102
552.025	454.1019
552.23	426.6523
552.435	430.87514
552.641	462.54846
552.846	485.77775
553.052	375.98323
553.257	451.9903
553.462	373.87222
553.668	363.31745
553.873	335.87706
554.078	375.98323
554.283	367.53931
554.489	540.69038
554.694	409.76156
554.899	422.42952
555.105	519.56899
555.31	350.65229
555.515	388.64961
555.72	494.22521
555.925	375.98323
556.131	454.1019
556.336	428.76371
556.541	447.76714
556.746	456.21352
556.951	401.31658
557.156	428.76371
557.361	437.20952
557.567	468.88354
557.772	513.23285
557.977	428.76371
558.182	536.46599
558.387	487.88959
558.592	494.22521
558.797	511.12083
559.002	502.6729
559.207	437.20952
559.412	509.00883
559.617	430.87514
559.822	532.24166
560.027	511.12083
560.232	530.12951
560.437	566.03788
560.642	578.71235
560.847	470.99526
561.051	563.92551
561.256	557.58849
561.461	570.26265
561.666	570.26265
561.871	561.81316
562.076	574.48747
562.281	635.75326
562.485	578.71235
562.69	544.91483
562.895	559.70082
563.1	604.06272
563.305	523.79316
563.509	561.81316
563.714	513.23285
563.919	587.16227
564.123	528.01738
564.328	633.64047
564.533	494.22521
564.737	688.57688
564.942	468.88354
565.147	614.62592
565.351	566.03788
565.556	585.04977
565.761	606.17534
565.965	587.16227
566.17	578.71235
566.374	623.07671
566.579	574.48747
566.784	747.74772
566.988	639.97888
567.193	671.67253
567.397	595.61239
567.602	663.22063
567.806	623.07671
568.011	610.4006
568.215	701.25563
568.42	692.80309
568.624	705.48196
568.828	701.25563
569.033	673.78553
569.237	703.36879
569.442	648.43026
569.646	743.52096
569.85	625.18944
570.055	654.76892
570.259	692.80309
570.463	792.13122
570.668	633.64047
570.872	745.63433
571.076	713.93477
571.281	773.10918
571.485	669.55954
571.689	758.31482
571.893	663.22063
572.098	866.113
572.302	637.86606
572.506	768.88217
572.71	809.04035
572.914	794.24483
573.119	866.113
573.323	935.87675
573.527	722.38775
573.731	792.13122
573.935	760.42827
574.139	770.99567
574.343	770.99567
574.547	912.62122
574.751	773.10918
574.955	946.44774
575.159	730.84091
575.364	887.25261
575.568	779.44977
575.772	823.83634
575.976	732.95422
576.18	899.93677
576.383	768.88217
576.587	950.67619
576.791	918.96355
576.995	844.97423
577.199	760.42827
577.403	866.113
577.607	849.20191
577.811	921.07767
578.015	825.95009
578.219	857.65739
578.422	895.70869
578.626	997.19094
578.83	893.59466
579.034	950.67619
579.238	906.27896
579.442	963.3617
579.645	870.34086
579.849	990.84783
580.053	908.39304
580.257	1035.25078
580.46	967.59026
580.664	1024.67841
580.868	899.93677
581.071	954.90467
581.275	840.74658
581.479	1035.25078
581.682	988.73347
581.886	999.30532
582.09	959.13317
582.293	971.81885
582.497	1009.87733
582.7	1014.10618
582.904	908.39304
583.107	1111.37596
583.311	1035.25078
583.515	1056.39597
583.718	967.59026
583.922	1011.99175
584.125	990.84783
584.329	1153.67046
584.532	902.05083
584.735	1157.90001
584.939	950.67619
