Data from absorb_only_2.23.25_USB4F045381__41__0146.txt Node

Date: Sun Feb 23 19:19:54 EST 2025
User: ssocol
Spectrometer: USB4F04538
Trigger mode: 4
Integration Time (sec): 2.600000E-3
Scans to average: 1
Electric dark correction enabled: true
Nonlinearity correction enabled: true
Boxcar width: 0
XAxis mode: Wavelengths
Number of Pixels in Spectrum: 3648
>>>>>Begin Spectral Data<<<<<
345.52	8.95656
345.736	8.95656
345.952	8.95656
346.168	-47.93647
346.384	-12.11701
346.6	2.63424
346.816	21.60186
347.032	63.75895
347.248	-16.33143
347.464	11.06405
347.68	-47.93647
347.896	-7.90249
348.112	-3.68787
348.328	-10.00976
348.544	19.49425
348.76	-16.33143
348.975	-16.33143
349.191	-3.68787
349.407	-16.33143
349.623	25.81715
349.839	-10.00976
350.055	-7.90249
350.27	4.74166
350.486	-45.82964
350.702	-35.29512
350.918	-113.23547
351.133	19.49425
351.349	-3.68787
351.565	63.75895
351.781	-7.90249
351.996	0.52684
352.212	32.14026
352.428	89.05761
352.644	57.4348
352.859	-20.54576
353.075	-28.97412
353.291	-54.2568
353.506	32.14026
353.722	38.46358
353.938	-62.68356
354.153	-24.75999
354.369	-58.47023
354.584	67.97517
354.8	-18.43861
355.016	-28.97412
355.231	-3.68787
355.447	-64.79019
355.662	38.46358
355.878	-20.54576
356.093	-37.40208
356.309	4.74166
356.524	4.74166
356.74	17.38667
356.955	-7.90249
357.171	32.14026
357.386	49.00291
357.602	-24.75999
357.817	-3.68787
358.033	30.03253
358.248	13.17157
358.464	55.32679
358.679	-54.2568
358.895	-60.57691
359.11	4.74166
359.325	-58.47023
359.541	-58.47023
359.756	-18.43861
359.972	99.59967
360.187	15.2791
360.402	6.8491
360.618	46.895
360.833	-31.08114
361.048	21.60186
361.264	-33.18815
361.479	15.2791
361.694	-1.58052
361.909	-73.21644
362.125	-66.89679
362.34	0.52684
362.555	-1.58052
362.77	6.8491
362.986	34.24801
363.201	13.17157
363.416	32.14026
363.631	-81.64228
363.847	-26.86706
364.062	-41.61591
364.277	67.97517
364.492	91.16598
364.707	-64.79019
364.922	-69.00336
365.138	-52.15005
365.353	23.70949
365.568	23.70949
365.783	-24.75999
365.998	-24.75999
366.213	38.46358
366.428	-20.54576
366.643	-20.54576
366.858	30.03253
367.073	-50.04327
367.288	-66.89679
367.503	-1.58052
367.718	0.52684
367.933	-62.68356
368.148	17.38667
368.363	-31.08114
368.578	44.78711
368.793	11.06405
369.008	-28.97412
369.223	46.895
369.438	13.17157
369.653	-60.57691
369.868	21.60186
370.083	-28.97412
370.298	-43.72279
370.513	-1.58052
370.728	-54.2568
370.943	8.95656
371.157	30.03253
371.372	59.54283
371.587	-14.22423
371.802	23.70949
372.017	40.5714
372.232	-52.15005
372.446	-16.33143
372.661	-3.68787
372.876	46.895
373.091	-24.75999
373.306	-18.43861
373.52	-39.50901
373.735	-16.33143
373.95	-18.43861
374.165	-1.58052
374.379	-24.75999
374.594	-12.11701
374.809	-26.86706
375.023	-43.72279
375.238	4.74166
375.453	11.06405
375.667	49.00291
375.882	-28.97412
376.097	65.86705
376.311	-41.61591
376.526	-10.00976
376.741	-12.11701
376.955	38.46358
377.17	-33.18815
377.384	-14.22423
377.599	-1.58052
377.813	-35.29512
378.028	-35.29512
378.242	-16.33143
378.457	51.11085
378.672	-85.85504
378.886	-35.29512
379.101	55.32679
379.315	55.32679
379.53	-14.22423
379.744	38.46358
379.958	-12.11701
380.173	-5.79519
380.387	17.38667
380.602	-22.65289
380.816	32.14026
381.031	-92.17399
381.245	15.2791
381.459	-3.68787
381.674	-14.22423
381.888	-24.75999
382.103	57.4348
382.317	4.74166
382.531	2.63424
382.746	55.32679
382.96	6.8491
383.174	-14.22423
383.388	15.2791
383.603	-16.33143
383.817	-20.54576
384.031	-20.54576
384.246	0.52684
384.46	-10.00976
384.674	-18.43861
384.888	46.895
385.103	51.11085
385.317	70.08331
385.531	-35.29512
385.745	63.75895
385.959	36.35578
386.174	-52.15005
386.388	-20.54576
386.602	6.8491
386.816	-12.11701
387.03	-79.53586
387.244	-3.68787
387.458	-14.22423
387.672	-3.68787
387.887	-10.00976
388.101	-20.54576
388.315	-18.43861
388.529	0.52684
388.743	63.75895
388.957	-35.29512
389.171	-58.47023
389.385	-7.90249
389.599	63.75895
389.813	46.895
390.027	-18.43861
390.241	-45.82964
390.455	-54.2568
390.669	-43.72279
390.883	46.895
391.097	8.95656
391.311	8.95656
391.525	-22.65289
391.738	-5.79519
391.952	63.75895
392.166	-18.43861
392.38	-10.00976
392.594	17.38667
392.808	-28.97412
393.022	-54.2568
393.236	-100.5989
393.449	-26.86706
393.663	-58.47023
393.877	25.81715
394.091	2.63424
394.305	-33.18815
394.518	-28.97412
394.732	4.74166
394.946	25.81715
395.16	40.5714
395.373	42.67924
395.587	-22.65289
395.801	-83.74867
396.015	-5.79519
396.228	-1.58052
396.442	-81.64228
396.656	-20.54576
396.869	30.03253
397.083	-18.43861
397.297	-24.75999
397.51	4.74166
397.724	40.5714
397.938	-45.82964
398.151	-54.2568
398.365	30.03253
398.578	-41.61591
398.792	17.38667
399.005	13.17157
399.219	4.74166
399.433	-28.97412
399.646	53.21881
399.86	40.5714
400.073	53.21881
400.287	30.03253
400.5	17.38667
400.714	-45.82964
400.927	21.60186
401.141	19.49425
401.354	-50.04327
401.567	27.92483
401.781	65.86705
401.994	-90.0677
402.208	-62.68356
402.421	55.32679
402.635	30.03253
402.848	-1.58052
403.061	46.895
403.275	17.38667
403.488	-18.43861
403.701	36.35578
403.915	-3.68787
404.128	-41.61591
404.341	4.74166
404.555	0.52684
404.768	-12.11701
404.981	-3.68787
405.195	30.03253
405.408	4.74166
405.621	-37.40208
405.834	55.32679
406.048	-24.75999
406.261	-41.61591
406.474	15.2791
406.687	13.17157
406.9	8.95656
407.114	-85.85504
407.327	-3.68787
407.54	-18.43861
407.753	13.17157
407.966	-12.11701
408.179	49.00291
408.392	-12.11701
408.605	-7.90249
408.819	0.52684
409.032	-18.43861
409.245	0.52684
409.458	30.03253
409.671	8.95656
409.884	0.52684
410.097	-31.08114
410.31	-54.2568
410.523	53.21881
410.736	-18.43861
410.949	0.52684
411.162	13.17157
411.375	17.38667
411.588	49.00291
411.801	44.78711
412.014	0.52684
412.227	21.60186
412.44	4.74166
412.653	-22.65289
412.865	15.2791
413.078	-33.18815
413.291	-1.58052
413.504	42.67924
413.717	25.81715
413.93	-26.86706
414.143	-45.82964
414.356	-26.86706
414.568	21.60186
414.781	-60.57691
414.994	-5.79519
415.207	17.38667
415.42	-3.68787
415.632	-12.11701
415.845	-31.08114
416.058	-16.33143
416.271	-16.33143
416.483	-1.58052
416.696	46.895
416.909	23.70949
417.121	61.65088
417.334	0.52684
417.547	120.68545
417.759	21.60186
417.972	-37.40208
418.185	30.03253
418.397	-47.93647
418.61	-37.40208
418.823	59.54283
419.035	44.78711
419.248	4.74166
419.46	-7.90249
419.673	70.08331
419.885	40.5714
420.098	51.11085
420.311	21.60186
420.523	6.8491
420.736	70.08331
420.948	38.46358
421.161	-79.53586
421.373	17.38667
421.586	-33.18815
421.798	11.06405
422.01	4.74166
422.223	72.19148
422.435	80.62436
422.648	15.2791
422.86	27.92483
423.073	4.74166
423.285	110.14229
423.497	-1.58052
423.71	32.14026
423.922	6.8491
424.134	-45.82964
424.347	-20.54576
424.559	-12.11701
424.771	2.63424
424.984	30.03253
425.196	72.19148
425.408	25.81715
425.621	-1.58052
425.833	-71.10991
426.045	13.17157
426.257	55.32679
426.47	63.75895
426.682	72.19148
426.894	19.49425
427.106	51.11085
427.318	-20.54576
427.531	-16.33143
427.743	30.03253
427.955	101.70815
428.167	6.8491
428.379	23.70949
428.591	-7.90249
428.804	55.32679
429.016	30.03253
429.228	4.74166
429.44	19.49425
429.652	-12.11701
429.864	36.35578
430.076	49.00291
430.288	36.35578
430.5	-18.43861
430.712	143.8823
430.924	38.46358
431.136	51.11085
431.348	108.03372
431.56	13.17157
431.772	74.29967
431.984	-58.47023
432.196	-24.75999
432.408	44.78711
432.62	-77.42941
432.832	-60.57691
433.044	15.2791
433.256	67.97517
433.468	-18.43861
433.679	-3.68787
433.891	-14.22423
434.103	4.74166
434.315	-12.11701
434.527	72.19148
434.739	-16.33143
434.95	72.19148
435.162	38.46358
435.374	25.81715
435.586	15.2791
435.798	65.86705
436.009	21.60186
436.221	6.8491
436.433	95.38278
436.645	30.03253
436.856	36.35578
437.068	-45.82964
437.28	42.67924
437.491	44.78711
437.703	-10.00976
437.915	55.32679
438.126	36.35578
438.338	36.35578
438.55	63.75895
438.761	25.81715
438.973	63.75895
439.184	-10.00976
439.396	122.79415
439.608	-41.61591
439.819	23.70949
440.031	-10.00976
440.242	25.81715
440.454	38.46358
440.665	-10.00976
440.877	30.03253
441.088	46.895
441.3	17.38667
441.511	8.95656
441.723	120.68545
441.934	-10.00976
442.146	17.38667
442.357	55.32679
442.569	36.35578
442.78	51.11085
442.991	42.67924
443.203	40.5714
443.414	38.46358
443.626	103.81665
443.837	15.2791
444.048	8.95656
444.26	61.65088
444.471	103.81665
444.682	38.46358
444.894	65.86705
445.105	21.60186
445.316	27.92483
445.528	13.17157
445.739	86.94927
445.95	55.32679
446.161	21.60186
446.373	89.05761
446.584	80.62436
446.795	-20.54576
447.006	89.05761
447.217	11.06405
447.429	53.21881
447.64	55.32679
447.851	63.75895
448.062	4.74166
448.273	46.895
448.484	141.77339
448.695	30.03253
448.907	38.46358
449.118	-10.00976
449.329	80.62436
449.54	105.92518
449.751	59.54283
449.962	95.38278
450.173	42.67924
450.384	36.35578
450.595	124.90287
450.806	57.4348
451.017	55.32679
451.228	21.60186
451.439	156.53622
451.65	63.75895
451.861	74.29967
452.072	78.51611
452.283	105.92518
452.494	114.35949
452.705	44.78711
452.915	72.19148
453.126	63.75895
453.337	55.32679
453.548	105.92518
453.759	44.78711
453.97	103.81665
454.181	67.97517
454.391	46.895
454.602	122.79415
454.813	135.44678
455.024	93.27437
455.235	158.64528
455.445	49.00291
455.656	46.895
455.867	42.67924
456.078	40.5714
456.288	63.75895
456.499	110.14229
456.71	118.57677
456.921	55.32679
457.131	139.6645
457.342	15.2791
457.553	131.22915
457.763	57.4348
457.974	61.65088
458.184	139.6645
458.395	122.79415
458.606	124.90287
458.816	118.57677
459.027	63.75895
459.237	93.27437
459.448	173.40929
459.659	116.46812
459.869	200.83082
460.08	91.16598
460.29	186.06495
460.501	133.33796
460.711	160.75436
460.922	114.35949
461.132	55.32679
461.343	114.35949
461.553	95.38278
461.764	169.1909
461.974	34.24801
462.184	110.14229
462.395	200.83082
462.605	152.31817
462.816	131.22915
463.026	167.08173
463.236	179.73703
463.447	67.97517
463.657	74.29967
463.867	262.01407
464.078	139.6645
464.288	266.2342
464.498	177.62776
464.709	186.06495
464.919	181.84631
465.129	224.03632
465.339	173.40929
465.55	207.15936
465.76	198.72135
465.97	190.28367
466.18	202.94032
466.391	186.06495
466.601	173.40929
466.811	316.8816
467.021	181.84631
467.231	156.53622
467.441	179.73703
467.651	299.99796
467.862	276.78487
468.072	215.59768
468.282	312.66058
468.492	344.31995
468.702	285.22573
468.912	342.2092
469.122	257.79401
469.332	232.47528
469.542	325.32385
469.752	384.42741
469.962	397.09419
470.172	388.64961
470.382	325.32385
470.592	380.20529
470.802	451.9903
471.012	464.66014
471.222	356.9848
471.432	331.65572
471.642	490.00145
471.852	445.65559
472.062	468.88354
472.272	513.23285
472.482	587.16227
472.691	532.24166
472.901	612.51326
473.111	576.59991
473.321	597.72496
473.531	608.28796
473.741	633.64047
473.95	658.99475
474.16	582.93728
474.37	604.06272
474.58	709.70835
474.79	891.48064
474.999	682.23766
475.209	629.41493
475.419	741.40759
475.628	840.74658
475.838	790.01762
476.048	910.50712
476.258	893.59466
476.467	893.59466
476.677	954.90467
476.886	978.16178
477.096	1043.70879
477.306	1014.10618
477.515	984.50478
477.725	959.13317
477.935	1115.60533
478.144	1166.35914
478.354	1174.81834
478.563	1289.02269
478.773	1314.40246
478.982	1327.09245
479.192	1225.57474
479.401	1500.52573
479.611	1415.92371
479.82	1390.54317
480.03	1447.64947
480.239	1561.86167
480.449	1443.41937
480.658	1640.11608
480.868	1695.10381
481.077	1623.19644
481.287	1549.17155
481.496	1881.19837
481.705	1690.87405
481.915	1889.65638
482.124	1621.08147
482.333	1906.57216
482.543	1881.19837
482.752	2035.54261
482.961	1925.60199
483.171	2160.26036
483.38	2075.70877
483.589	2223.6656
483.799	2278.61046
484.008	2295.51532
484.217	2255.3653
484.426	2352.56473
484.636	2403.26922
484.845	2568.01597
485.054	2299.74145
485.263	2496.21166
485.472	2451.85539
485.682	2559.56911
485.891	2451.85539
486.1	2415.94441
486.309	2667.25214
486.518	2675.6965
486.727	2713.69359
486.936	3015.40133
487.146	2836.0994
487.355	2819.21857
487.564	2692.58462
487.773	2814.99822
487.982	2844.53948
488.191	2996.42148
488.4	2827.65909
488.609	3047.03165
488.818	2987.9856
489.027	3215.66666
489.236	2994.31254
489.445	3449.47071
489.654	3186.163
489.863	3346.2862
490.072	3257.80911
490.281	3554.71665
490.49	3382.0897
490.698	3361.02943
490.907	3445.25993
491.116	3531.56646
491.325	3417.88813
491.534	3584.17729
491.743	3605.21836
491.952	3670.43375
492.16	3617.84211
492.369	3851.25706
492.578	3689.36383
492.787	3880.67966
492.996	3796.60478
493.204	4050.83271
493.413	4040.33332
493.622	4067.63066
493.831	3872.2736
494.039	4115.91737
494.248	4151.60044
494.457	4185.17896
494.665	4042.43324
494.874	4292.17423
495.083	4166.29171
495.291	4338.31185
495.5	4285.88193
495.709	4478.75714
495.917	4350.89303
496.126	4451.51424
496.335	4325.7299
496.543	4392.82463
496.752	4432.65159
496.96	4566.74719
497.169	4543.70595
497.377	4470.37511
497.586	4482.94803
497.794	4763.53464
498.003	4459.89706
498.211	4832.57228
498.42	4516.47194
498.628	4801.1946
498.837	4771.90415
499.045	5006.10241
499.254	4543.70595
499.462	4945.48937
499.671	4761.4422
499.879	5098.02992
500.087	4916.22099
500.296	5075.05225
500.504	4983.11354
500.713	5204.52607
500.921	4886.9481
501.129	4999.83299
501.338	4937.12744
501.546	5323.47938
501.754	4962.21214
501.962	5262.96876
502.171	5283.83672
502.379	5486.13421
502.587	5292.18324
502.795	5296.35637
503.004	5338.08244
503.212	5273.40303
503.42	5141.8886
503.628	5350.59844
503.837	5386.05584
504.045	5550.73935
504.253	5584.07508
504.461	5571.57489
504.669	5604.90685
504.877	5584.07508
505.085	5598.65756
505.294	5840.14186
505.502	5573.65831
505.71	6033.51635
505.918	5515.31353
506.126	5715.27584
506.334	5688.21033
506.542	6008.57626
506.75	5673.63495
506.958	6002.34071
507.166	5867.18497
507.374	5871.34509
507.582	5900.46332
507.79	6224.61119
507.998	5800.61015
508.206	6164.39623
508.414	6037.6727
508.622	6251.5977
508.83	5925.41812
509.037	6239.14288
509.245	6062.60884
509.453	6378.1739
509.661	6303.48371
509.869	6288.9571
510.077	6151.9355
510.285	6531.60895
510.492	6334.6083
510.7	6477.71384
510.908	6320.08415
511.116	6353.28053
511.324	6492.2256
511.531	6515.02751
511.739	6307.63396
511.947	6521.24573
512.155	6237.06699
512.362	6771.87394
512.57	6463.20094
512.778	6577.20028
512.985	6427.95057
513.193	6589.63234
513.401	6456.98077
513.608	6660.06497
513.816	6506.73623
514.024	6761.52407
514.231	6500.51753
514.439	6916.71238
514.646	6664.20724
514.854	6647.63762
515.061	6558.55064
515.269	6927.05372
515.477	6738.75233
515.684	6972.54893
515.892	6693.20053
516.099	6968.41345
516.307	6893.95943
516.514	7036.63729
516.722	6987.02238
516.929	7061.43989
517.136	7065.57335
517.344	7193.66612
517.551	6999.42733
517.759	7144.09198
517.966	6956.00648
518.173	7224.64348
518.381	7185.40465
518.588	7385.64586
518.796	7362.94847
519.003	7111.03543
519.21	7131.69644
519.418	7527.96051
519.625	7251.48649
519.832	7492.90703
520.039	7348.5033
520.247	7659.87104
520.454	7492.90703
520.661	7610.41483
520.868	7556.82341
521.076	7575.37592
521.283	7362.94847
521.49	7649.56867
521.697	7585.68212
521.904	7742.27097
522.112	7659.87104
522.319	7729.91313
522.526	7416.5926
522.733	7826.69604
522.94	7799.93092
523.147	7911.08615
523.354	7876.09935
523.561	8116.77123
523.768	7758.74692
523.975	7948.12451
524.183	7668.11255
524.39	8034.52158
524.597	8083.87524
524.804	7929.60616
525.011	7966.6412
525.218	8244.19488
525.425	7993.3846
525.632	7904.91244
525.838	8151.7176
526.045	8252.41314
526.252	8026.29483
526.459	8063.31263
526.666	8135.27297
526.873	8412.60667
527.08	7974.8703
527.287	8240.08563
527.494	8013.95411
527.701	8445.4523
527.907	8219.5382
528.114	8509.07677
528.321	8289.39142
528.528	8342.79329
528.735	8646.52558
528.941	8654.72882
529.148	8225.70263
529.355	8603.45368
529.562	8377.70278
529.768	8773.6426
529.975	8394.12883
530.182	8457.76815
530.388	8486.50245
530.595	8626.01618
530.802	8476.24063
531.008	8888.39769
531.215	8769.54315
531.422	8843.32208
531.628	8746.99488
531.835	8837.17473
532.042	8736.74494
532.248	9148.43972
532.455	8919.1261
532.661	8966.23521
532.868	9162.76461
533.074	9189.36576
533.281	9199.59621
533.487	9181.1811
533.694	8958.043
533.9	9369.3604
534.107	9172.99616
534.313	9244.60516
534.52	9318.23867
534.726	9295.74183
534.933	9183.22729
535.139	9353.00257
535.345	9340.7335
535.552	9565.57348
535.758	9109.55364
535.965	9492.01093
536.171	9397.98409
536.377	9588.04683
536.584	9541.05491
536.79	9371.40506
536.996	9804.51211
537.203	9479.74849
537.409	9598.26136
537.615	9912.68101
537.821	9381.62809
538.028	9882.07139
538.234	9775.93219
538.44	9698.34316
538.646	9592.13269
538.853	9859.62223
539.059	9757.55783
539.265	9810.636
539.471	9761.64113
539.677	9835.13019
539.883	9739.18223
540.09	9843.29444
540.296	9810.636
540.502	9837.17127
540.708	9886.15287
540.914	10033.04706
541.12	9998.37047
541.326	10298.08702
541.532	10294.01124
541.738	10336.80431
541.944	10049.36402
542.15	10073.83776
542.356	10143.16902
542.562	10324.57832
542.768	10210.44574
542.974	10249.17405
543.18	10387.74083
543.386	10601.58593
543.592	10112.5837
543.798	10479.40597
544.004	10385.70352
544.21	10414.22457
544.415	10391.81539
544.621	10742.03775
544.827	10163.5575
545.033	10640.26686
545.239	10548.64685
545.445	10961.76201
545.651	10257.32675
545.856	10868.19225
546.062	10518.10121
546.268	10564.93669
546.474	10528.2834
546.679	10518.10121
546.885	10487.55272
547.091	10792.91193
547.297	10381.62888
547.502	10617.87318
547.708	10615.83732
547.914	10796.98155
548.119	10782.73769
548.325	10595.478
548.531	10406.07596
548.736	10794.94675
548.942	10805.12064
549.147	10823.4329
549.353	10988.2013
549.559	10963.79587
549.764	10711.50966
549.97	10780.7028
550.175	10862.08903
550.381	11018.70584
550.586	11165.0934
550.792	11392.69935
550.997	11270.78353
551.203	11382.54107
551.408	11177.28986
551.614	11246.39599
551.819	11238.26648
552.025	11305.33002
552.23	11114.27072
552.435	11313.45818
552.641	11435.36144
552.846	11321.58618
553.052	11285.00891
553.257	11465.83174
553.462	11348.00107
553.668	11540.98261
553.873	11287.04107
554.078	11723.72912
554.283	11362.22377
554.489	11571.44551
554.694	11644.54799
554.899	11610.02885
555.105	11672.97355
555.31	11668.91286
555.515	11656.73058
555.72	11664.85214
555.925	11461.76916
556.131	11756.20979
556.336	11886.11049
556.541	12013.9483
556.746	11599.87566
556.951	11756.20979
557.156	11543.01354
557.361	11808.98615
557.567	11528.79686
557.772	11908.4337
557.977	11748.08983
558.182	11892.19873
558.387	11607.99823
558.592	11863.78627
558.797	11902.34565
559.002	11746.05982
559.207	11934.8144
559.412	11867.84529
559.617	11873.93376
559.822	12082.927
560.027	12190.43499
560.232	12113.35594
560.437	11794.7777
560.642	12295.89442
560.847	12192.46324
561.051	12113.35594
561.256	12066.69753
561.461	12198.54795
561.666	12395.25219
561.871	12115.38448
562.076	12101.18457
562.281	12184.3502
562.485	11892.19873
562.69	12431.74685
562.895	12224.91426
563.1	12447.96601
563.305	12123.49854
563.509	12409.44481
563.714	12595.94667
563.919	12466.21205
564.123	12082.927
564.328	12579.73126
564.533	12405.38981
564.737	12362.81065
564.942	12273.58731
565.147	12405.38981
565.351	12326.31183
565.556	12259.39143
565.761	12447.96601
565.965	12628.37632
566.17	12257.36342
566.374	12565.54245
566.579	12683.09784
566.784	12352.67231
566.988	12573.65038
567.193	12784.42267
567.397	12571.6234
567.602	12758.07959
567.806	12545.27218
568.011	12837.10597
568.215	12687.15111
568.42	13049.82879
568.624	12885.73342
568.828	12804.68592
569.033	12533.10972
569.237	12922.20198
569.442	13015.39178
569.646	13019.44326
569.85	12679.04454
570.055	12559.46143
570.259	12727.68254
570.463	12908.01997
570.668	12946.51341
570.872	12875.60296
571.076	12871.55074
571.281	13005.26297
571.485	12778.34358
571.689	13207.81617
571.893	12980.95333
572.098	13072.1108
572.302	12908.01997
572.506	12822.92237
572.71	12881.68125
572.914	13132.87698
573.119	12837.10597
573.323	13252.37169
573.527	12946.51341
573.731	13143.00426
573.935	13059.95705
574.139	13444.74709
574.343	12794.55436
