Data from absorb_only_2.23.25_USB4F045381__69__0174.txt Node

Date: Sun Feb 23 19:26:18 EST 2025
User: ssocol
Spectrometer: USB4F04538
Trigger mode: 4
Integration Time (sec): 2.600000E-3
Scans to average: 1
Electric dark correction enabled: true
Nonlinearity correction enabled: true
Boxcar width: 0
XAxis mode: Wavelengths
Number of Pixels in Spectrum: 3648
>>>>>Begin Spectral Data<<<<<
345.52	-11.94141
345.736	-11.94141
345.952	-11.94141
346.168	44.96277
346.384	0.70246
346.6	-91.99847
346.816	-43.54722
347.032	7.02472
347.248	63.93463
347.464	-28.79853
347.68	17.5623
347.896	21.7775
348.112	19.66988
348.328	0.70246
348.544	9.13219
348.76	32.3159
348.975	-7.72688
349.191	49.17857
349.407	91.34168
349.623	-49.86771
349.839	-7.72688
350.055	25.99279
350.27	63.93463
350.486	13.34719
350.702	42.8549
350.918	-7.72688
351.133	15.45473
351.349	-45.65407
351.565	2.80986
351.781	-39.33343
351.996	51.28651
352.212	-1.40491
352.428	11.23968
352.644	9.13219
352.859	59.7185
353.075	47.07066
353.291	2.80986
353.506	34.42366
353.722	19.66988
353.938	-9.83416
354.153	-41.44034
354.369	59.7185
354.584	19.66988
354.8	-41.44034
355.016	-33.01256
355.231	28.10047
355.447	42.8549
355.662	28.10047
355.878	95.55848
356.093	4.91728
356.309	-24.5844
356.524	36.53143
356.74	-11.94141
356.955	17.5623
357.171	38.63923
357.386	-39.33343
357.602	-22.47729
357.817	11.23968
358.033	47.07066
358.248	38.63923
358.464	34.42366
358.679	9.13219
358.895	0.70246
359.11	68.15085
359.325	68.15085
359.541	-24.5844
359.756	34.42366
359.972	-16.15583
360.187	112.42659
360.402	36.53143
360.618	51.28651
360.833	78.6918
361.048	42.8549
361.264	87.12496
361.479	87.12496
361.694	25.99279
361.909	57.61047
362.125	61.82655
362.34	9.13219
362.555	9.13219
362.77	4.91728
362.986	9.13219
363.201	53.39447
363.416	63.93463
363.631	19.66988
363.847	36.53143
364.062	7.02472
364.277	34.42366
364.492	-5.61958
364.707	-33.01256
364.922	11.23968
365.138	97.66692
365.353	17.5623
365.568	25.99279
365.783	55.50246
365.998	59.7185
366.213	21.7775
366.428	49.17857
366.643	32.3159
366.858	23.88513
367.073	36.53143
367.288	-64.61464
367.503	42.8549
367.718	-39.33343
367.933	66.04272
368.148	11.23968
368.363	-54.08124
368.578	-91.99847
368.793	-5.61958
369.008	19.66988
369.223	-33.01256
369.438	9.13219
369.653	85.01664
369.868	19.66988
370.083	59.7185
370.298	47.07066
370.513	30.20817
370.728	11.23968
370.943	-22.47729
371.157	-66.72124
371.372	9.13219
371.587	25.99279
371.802	99.77538
372.017	-33.01256
372.232	15.45473
372.446	28.10047
372.661	38.63923
372.876	133.51369
373.091	23.88513
373.306	0.70246
373.52	9.13219
373.735	87.12496
373.95	0.70246
374.165	-20.37016
374.379	21.7775
374.594	-16.15583
374.809	7.02472
375.023	2.80986
375.238	61.82655
375.453	17.5623
375.667	106.10089
375.882	42.8549
376.097	28.10047
376.311	19.66988
376.526	61.82655
376.741	25.99279
376.955	34.42366
377.17	17.5623
377.384	7.02472
377.599	9.13219
377.813	-3.51226
378.028	-30.90556
378.242	13.34719
378.457	28.10047
378.672	15.45473
378.886	0.70246
379.101	-62.50801
379.315	44.96277
379.53	17.5623
379.744	-3.51226
379.958	28.10047
380.173	-30.90556
380.387	-3.51226
380.602	-24.5844
380.816	13.34719
381.031	28.10047
381.245	-3.51226
381.459	4.91728
381.674	17.5623
381.888	17.5623
382.103	4.91728
382.317	-7.72688
382.531	47.07066
382.746	9.13219
382.96	38.63923
383.174	25.99279
383.388	42.8549
383.603	76.58356
383.817	53.39447
384.031	9.13219
384.246	-1.40491
384.46	36.53143
384.674	34.42366
384.888	13.34719
385.103	89.23331
385.317	47.07066
385.531	108.20943
385.745	-16.15583
385.959	17.5623
386.174	72.36716
386.388	34.42366
386.602	61.82655
386.816	13.34719
387.03	21.7775
387.244	72.36716
387.458	34.42366
387.672	42.8549
387.887	28.10047
388.101	-7.72688
388.315	4.91728
388.529	-16.15583
388.743	-11.94141
388.957	89.23331
389.171	17.5623
389.385	76.58356
389.599	21.7775
389.813	36.53143
390.027	19.66988
390.241	-28.79853
390.455	97.66692
390.669	11.23968
390.883	25.99279
391.097	55.50246
391.311	66.04272
391.525	101.88386
391.738	40.74705
391.952	59.7185
392.166	-14.04863
392.38	21.7775
392.594	-24.5844
392.808	51.28651
393.022	21.7775
393.236	32.3159
393.449	59.7185
393.663	-14.04863
393.877	55.50246
394.091	55.50246
394.305	19.66988
394.518	70.25899
394.732	63.93463
394.946	38.63923
395.16	-3.51226
395.373	112.42659
395.587	87.12496
395.801	47.07066
396.015	78.6918
396.228	-11.94141
396.442	49.17857
396.656	-45.65407
396.869	9.13219
397.083	61.82655
397.297	-16.15583
397.51	59.7185
397.724	13.34719
397.938	112.42659
398.151	30.20817
398.365	17.5623
398.578	-11.94141
398.792	21.7775
399.005	-7.72688
399.219	82.90833
399.433	9.13219
399.646	51.28651
399.86	59.7185
400.073	-51.97449
400.287	61.82655
400.5	11.23968
400.714	114.5352
400.927	61.82655
401.141	51.28651
401.354	40.74705
401.567	61.82655
401.781	97.66692
401.994	101.88386
402.208	57.61047
402.421	15.45473
402.635	49.17857
402.848	17.5623
403.061	30.20817
403.275	-58.29468
403.488	87.12496
403.701	87.12496
403.915	42.8549
404.128	13.34719
404.341	0.70246
404.555	68.15085
404.768	103.99236
404.981	9.13219
405.195	80.80005
405.408	53.39447
405.621	59.7185
405.834	53.39447
406.048	-33.01256
406.261	34.42366
406.474	51.28651
406.687	25.99279
406.9	89.23331
407.114	11.23968
407.327	28.10047
407.54	19.66988
407.753	38.63923
407.966	34.42366
408.179	-16.15583
408.392	59.7185
408.605	19.66988
408.819	4.91728
409.032	17.5623
409.245	42.8549
409.458	-45.65407
409.671	76.58356
409.884	57.61047
410.097	7.02472
410.31	34.42366
410.523	13.34719
410.736	139.84024
410.949	19.66988
411.162	70.25899
411.375	95.55848
411.588	68.15085
411.801	49.17857
412.014	42.8549
412.227	68.15085
412.44	76.58356
412.653	9.13219
412.865	40.74705
413.078	25.99279
413.291	95.55848
413.504	51.28651
413.717	91.34168
413.93	103.99236
414.143	36.53143
414.356	34.42366
414.568	42.8549
414.781	82.90833
414.994	51.28651
415.207	55.50246
415.42	112.42659
415.632	42.8549
415.845	70.25899
416.058	-3.51226
416.271	51.28651
416.483	36.53143
416.696	2.80986
416.909	17.5623
417.121	63.93463
417.334	51.28651
417.547	93.45007
417.759	51.28651
417.972	4.91728
418.185	34.42366
418.397	34.42366
418.61	68.15085
418.823	59.7185
419.035	47.07066
419.248	53.39447
419.46	42.8549
419.673	80.80005
419.885	51.28651
420.098	-16.15583
420.311	122.96987
420.523	9.13219
420.736	32.3159
420.948	28.10047
421.161	55.50246
421.373	42.8549
421.586	127.18734
421.798	13.34719
422.01	34.42366
422.223	66.04272
422.435	42.8549
422.648	51.28651
422.86	-37.2265
423.073	-16.15583
423.285	19.66988
423.497	51.28651
423.71	61.82655
423.922	34.42366
424.134	47.07066
424.347	-24.5844
424.559	-7.72688
424.771	44.96277
424.984	47.07066
425.196	11.23968
425.408	42.8549
425.621	11.23968
425.833	30.20817
426.045	11.23968
426.257	93.45007
426.47	38.63923
426.682	36.53143
426.894	44.96277
427.106	49.17857
427.318	49.17857
427.531	72.36716
427.743	44.96277
427.955	68.15085
428.167	97.66692
428.379	47.07066
428.591	4.91728
428.804	53.39447
429.016	11.23968
429.228	38.63923
429.44	9.13219
429.652	19.66988
429.864	51.28651
430.076	21.7775
430.288	76.58356
430.5	51.28651
430.712	19.66988
430.924	40.74705
431.136	97.66692
431.348	32.3159
431.56	76.58356
431.772	44.96277
431.984	34.42366
432.196	23.88513
432.408	9.13219
432.62	68.15085
432.832	51.28651
433.044	76.58356
433.256	76.58356
433.468	44.96277
433.679	53.39447
433.891	17.5623
434.103	63.93463
434.315	42.8549
434.527	76.58356
434.739	74.47535
434.95	-7.72688
435.162	82.90833
435.374	63.93463
435.586	17.5623
435.798	59.7185
436.009	44.96277
436.221	15.45473
436.433	30.20817
436.645	87.12496
436.856	36.53143
437.068	-14.04863
437.28	34.42366
437.491	34.42366
437.703	49.17857
437.915	-7.72688
438.126	15.45473
438.338	114.5352
438.55	66.04272
438.761	59.7185
438.973	101.88386
439.184	61.82655
439.396	34.42366
439.608	25.99279
439.819	118.75249
440.031	103.99236
440.242	118.75249
440.454	114.5352
440.665	137.73137
440.877	120.86117
441.088	99.77538
441.3	38.63923
441.511	131.40488
441.723	59.7185
441.934	76.58356
442.146	103.99236
442.357	61.82655
442.569	72.36716
442.78	91.34168
442.991	87.12496
443.203	0.70246
443.414	93.45007
443.626	30.20817
443.837	152.49392
444.048	76.58356
444.26	42.8549
444.471	110.318
444.682	135.62252
444.894	44.96277
445.105	-11.94141
445.316	34.42366
445.528	89.23331
445.739	78.6918
445.95	59.7185
446.161	70.25899
446.373	93.45007
446.584	114.5352
446.795	42.8549
447.006	99.77538
447.217	19.66988
447.429	129.2961
447.64	11.23968
447.851	141.94913
448.062	63.93463
448.273	30.20817
448.484	76.58356
448.695	110.318
448.907	59.7185
449.118	80.80005
449.329	127.18734
449.54	4.91728
449.751	112.42659
449.962	70.25899
450.173	148.27594
450.384	49.17857
450.595	158.82104
450.806	135.62252
451.017	127.18734
451.228	59.7185
451.439	97.66692
451.65	2.80986
451.861	165.14835
452.072	103.99236
452.283	55.50246
452.494	78.6918
452.705	76.58356
452.915	59.7185
453.126	89.23331
453.337	51.28651
453.548	116.64384
453.759	106.10089
453.97	137.73137
454.181	28.10047
454.391	101.88386
454.602	61.82655
454.813	19.66988
455.024	112.42659
455.235	108.20943
455.445	118.75249
455.656	110.318
455.867	59.7185
456.078	160.93012
456.288	108.20943
456.499	57.61047
456.71	93.45007
456.921	110.318
457.131	99.77538
457.342	63.93463
457.553	139.84024
457.763	101.88386
457.974	87.12496
458.184	152.49392
458.395	103.99236
458.606	53.39447
458.816	201.00661
459.027	160.93012
459.237	129.2961
459.448	133.51369
459.659	110.318
459.869	68.15085
460.08	190.45945
460.29	87.12496
460.501	198.89714
460.711	226.32184
460.922	112.42659
461.132	93.45007
461.343	139.84024
461.553	144.05805
461.764	118.75249
461.974	125.07859
462.184	211.55428
462.395	186.24073
462.605	150.38492
462.816	129.2961
463.026	190.45945
463.236	114.5352
463.447	154.60294
463.657	205.22562
463.867	182.02209
464.078	241.09037
464.288	139.84024
464.498	215.77348
464.709	186.24073
464.919	167.25749
465.129	201.00661
465.339	222.10244
465.55	125.07859
465.76	203.11611
465.97	279.07091
466.18	287.51185
466.391	232.6511
466.601	165.14835
466.811	298.06345
467.021	224.21213
467.231	232.6511
467.441	285.40159
467.651	228.43158
467.862	333.94227
468.072	230.54133
468.282	270.63026
468.492	321.27857
468.702	283.29134
468.912	281.18111
469.122	325.49973
469.332	317.05747
469.542	287.51185
469.752	359.27157
469.962	327.61034
470.172	416.27141
470.382	407.82623
470.592	407.82623
470.802	361.38246
471.012	439.49697
471.222	384.60334
471.432	409.9375
471.642	397.27012
471.852	553.53991
472.062	456.38949
472.272	545.09085
472.482	515.52089
472.691	502.8489
472.901	566.21391
473.111	538.7542
473.321	481.73009
473.531	671.84861
473.741	600.01358
473.95	587.33831
474.16	614.80198
474.37	771.1718
474.58	646.49347
474.79	762.71785
474.999	766.94481
475.209	773.28531
475.419	690.86607
475.628	779.6259
475.838	722.56386
476.048	834.58132
476.258	817.67129
476.467	1050.22857
476.677	906.45513
476.886	1039.65598
477.096	988.90967
477.306	1043.885
477.515	997.36714
477.725	1115.78156
477.935	1075.60333
478.144	1111.55219
478.354	1075.60333
478.563	1270.16431
478.773	1251.12988
478.982	1314.57871
479.192	1301.88878
479.401	1420.33006
479.611	1333.61372
479.82	1426.67521
480.03	1439.36552
480.239	1614.91281
480.449	1439.36552
480.658	1549.3478
480.868	1633.94748
481.077	1631.83252
481.287	1600.10795
481.496	1697.39492
481.705	1735.46212
481.915	1739.69174
482.124	1820.0516
482.333	1902.51945
482.543	1792.56073
482.752	1944.80755
482.961	1944.80755
483.171	2209.04784
483.38	1908.86281
483.589	2069.54308
483.799	2183.68595
484.008	2346.40233
484.217	2242.86177
484.426	2344.28948
484.636	1970.1793
484.845	2280.89969
485.054	2228.06845
485.263	2416.12046
485.472	2321.04757
485.682	2658.98351
485.891	2487.93923
486.1	2637.87122
486.309	2627.31461
486.518	2815.17407
486.727	2578.75026
486.936	2819.39441
487.146	2612.53484
487.355	2876.36358
487.564	2781.40933
487.773	2882.69285
487.982	2713.8695
488.191	2960.7431
488.4	2941.75975
488.609	2998.70616
488.818	2983.94333
489.027	3177.90843
489.236	3257.98469
489.445	3359.09881
489.654	3211.62766
489.863	3559.1009
490.072	3308.54669
490.281	3388.58293
490.49	3354.88652
490.698	3314.86625
490.907	3228.4857
491.116	3786.2684
491.325	3514.90397
491.534	3647.47019
491.743	3472.80415
491.952	3584.35264
492.16	3805.18887
492.369	3882.95624
492.578	3784.16602
492.787	3857.73737
492.996	3882.95624
493.204	3943.88992
493.413	3754.73075
493.622	4019.508
493.831	3857.73737
494.039	4265.08101
494.248	4004.80656
494.457	4053.10751
494.665	4072.00491
494.874	4244.10315
495.083	4369.93804
495.291	4265.08101
495.5	4074.10452
495.709	4363.64814
495.917	4233.61343
496.126	4239.90733
496.335	4491.50415
496.543	4229.41739
496.752	4388.80657
496.96	4508.26609
497.169	4529.21653
497.377	4495.69476
497.586	4460.0717
497.794	4537.59608
498.003	4650.68524
498.211	4816.01248
498.42	4562.73262
498.628	4864.11911
498.837	4759.52412
499.045	4991.64761
499.254	4698.83303
499.462	4899.66842
499.671	4874.57548
499.879	5010.45604
500.087	4928.93935
500.296	5016.72511
500.504	5039.70989
500.713	5050.1566
500.921	5012.54575
501.129	5029.26261
501.338	5010.45604
501.546	5242.2724
501.754	4895.48649
501.962	5357.02994
502.171	5208.87511
502.379	5361.2016
502.587	5150.41549
502.795	5444.61521
503.004	5175.47185
503.212	5430.02054
503.42	5288.18391
503.628	5486.30791
503.837	5450.86971
504.045	5496.72961
504.253	5463.37809
504.461	5719.61289
504.669	5388.31515
504.877	5750.83662
505.085	5588.41522
505.294	5675.89074
505.502	5732.10302
505.71	5750.83662
505.918	5621.74414
506.126	5975.49077
506.334	5669.64387
506.542	5834.07395
506.75	5958.85915
506.958	6052.39236
507.166	5950.54278
507.374	6083.5595
507.582	5977.56961
507.79	6069.01549
507.998	6014.9848
508.206	6087.71471
508.414	5852.79714
508.622	6077.32649
508.83	6150.0317
509.037	6318.18209
509.245	6187.41175
509.453	6189.4882
509.661	6399.08865
509.869	6318.18209
510.077	6116.79861
510.285	6233.08815
510.492	6187.41175
510.7	6484.10607
510.908	6183.25879
511.116	6324.40693
511.324	6048.23634
511.531	6581.51706
511.739	6295.35587
511.947	6508.98182
512.155	6523.49114
512.362	6772.04643
512.57	6691.3023
512.778	6498.61733
512.985	6332.70639
513.193	6691.3023
513.401	6656.09521
513.608	6647.81022
513.816	6357.60254
514.024	6494.47137
514.231	6533.85424
514.439	6740.99512
514.646	6687.16063
514.854	6933.4306
515.061	6697.51462
515.269	6745.13559
515.477	6591.87693
515.684	6881.71996
515.892	6832.0644
516.099	7051.27811
516.307	6757.55646
516.514	6852.75581
516.722	6889.99462
516.929	6941.70299
517.136	7012.00373
517.344	7129.80261
517.551	6896.20037
517.759	7111.20761
517.966	7014.07101
518.173	7036.80954
518.381	7204.16456
518.588	7255.78791
518.796	7255.78791
519.003	7396.13391
519.21	7096.74359
519.418	7532.25585
519.625	7113.27381
519.832	7352.80257
520.039	7255.78791
520.247	7416.76451
520.454	7606.46467
520.661	7746.56171
520.868	7387.88107
521.076	7676.52542
521.283	7484.8301
521.49	7517.82313
521.697	7680.64587
521.904	7719.786
522.112	7625.01255
522.319	7730.08477
522.526	7575.5477
522.733	7944.18093
522.94	7810.39719
523.147	7707.42679
523.354	7746.56171
523.561	8059.37123
523.768	7841.27812
523.975	8007.95488
524.183	7717.72619
524.39	7824.80887
524.597	8067.59667
524.804	7894.79402
525.011	8042.91938
525.218	8158.05529
525.425	8250.52982
525.632	8116.94255
525.838	7841.27812
526.045	8256.69336
526.252	8227.92864
526.459	8291.61676
526.666	8112.83084
526.873	8400.45938
527.08	8316.26517
527.287	8314.21124
527.494	8127.22149
527.701	8308.04935
527.907	8250.52982
528.114	8201.21507
528.321	8482.5688
528.528	8462.04432
528.735	8576.95694
528.941	8544.13083
529.148	8318.31907
529.355	8503.09138
529.562	8371.7138
529.768	8650.79814
529.975	8355.28606
530.182	8572.85394
530.388	8509.24778
530.595	8827.09956
530.802	8423.04253
531.008	9183.3978
531.215	8784.0617
531.422	8763.56466
531.628	8945.92482
531.835	9089.25538
532.042	8954.11746
532.248	8968.45389
532.455	8843.49284
532.661	8941.8284
532.868	8851.68905
533.074	9013.50563
533.281	8947.97301
533.487	8915.19991
533.694	9089.25538
533.9	9396.11002
534.107	9015.55323
534.313	9355.21775
534.52	9169.07411
534.726	9291.82172
534.933	9158.8424
535.139	9300.00275
535.345	9281.59506
535.552	9418.59798
535.758	9406.33206
535.965	9649.49836
536.171	9404.28769
536.377	9635.20065
536.584	9463.56801
536.79	9306.13835
536.996	9365.44143
537.203	9582.08817
537.409	9371.57545
537.615	9520.79132
537.821	9463.56801
538.028	9547.35504
538.234	9441.08397
538.44	9710.76569
538.646	9441.08397
538.853	9653.58329
539.059	9778.14384
539.265	9853.6695
539.471	9718.93362
539.677	9818.97107
539.883	9667.88002
540.09	9898.56699
540.296	9908.76997
540.502	10202.46166
540.708	9859.79231
540.914	10200.42314
541.12	10135.18316
541.326	10076.0471
541.532	10025.05821
541.738	10002.62027
541.944	10253.42028
542.15	10106.63619
542.356	10131.10519
542.562	10206.53867
542.768	10251.38209
542.974	10275.83938
543.18	10292.14315
543.386	10589.53963
543.592	10216.73094
543.798	10597.68365
544.004	10281.95339
544.21	10638.40078
544.415	10467.35519
544.621	10742.20734
544.827	10563.07019
545.033	10874.46489
545.239	10504.01532
545.445	10756.45285
545.651	10318.63496
545.856	11008.7074
546.062	10640.43651
546.268	10687.25485
546.474	10587.5036
546.679	10616.00697
546.885	10546.78025
547.091	10770.69778
547.297	10784.94213
547.502	10713.71455
547.708	10809.35967
547.914	10711.67926
548.119	10961.9315
548.325	10848.01733
548.531	10644.50793
548.736	10727.96124
548.942	10528.4531
549.147	10896.84207
549.353	10776.80258
549.559	11002.60653
549.764	10827.67172
549.97	11075.81044
550.175	11004.64016
550.381	11083.94333
550.586	10762.55789
550.792	11053.44409
550.997	11140.86876
551.203	11120.53921
551.408	11201.85102
551.614	11214.04633
551.819	11092.07605
552.025	11340.04292
552.23	11153.06597
552.435	11390.83701
552.641	11403.02668
552.846	11510.68686
553.052	11425.37348
553.257	11638.62577
553.462	11451.78182
553.668	11518.81107
553.873	11323.78749
554.078	11593.95286
554.283	11392.86865
554.489	11685.32458
554.694	11697.5061
554.899	11496.46914
555.105	11417.24751
555.31	11884.25017
555.515	11500.53139
555.72	11898.45602
555.925	11646.74765
556.131	12001.94372
556.336	11669.08206
556.541	11766.52871
556.746	11459.90713
556.951	11794.94685
557.156	11748.259
557.361	11884.25017
557.567	11689.38512
557.772	11805.09578
557.977	11547.2446
558.182	11693.44563
558.387	11916.72009
558.592	12006.00164
558.797	11908.60281
559.002	11776.67824
559.207	11742.16894
559.412	11831.48201
559.617	11831.48201
559.822	12097.29644
560.027	12168.29277
560.232	12196.68874
560.437	11928.89577
560.642	12342.70278
560.847	12350.8136
561.051	12517.06167
561.256	12018.17519
561.461	12068.8953
561.666	12196.68874
561.871	12271.72835
562.076	12358.92431
562.281	12523.14308
562.485	12472.46289
562.69	12389.3385
562.895	12336.61959
563.1	12464.35368
563.305	12127.72457
563.509	12206.82981
563.714	12101.35362
563.919	12306.20272
564.123	12257.53242
564.328	12332.5641
564.533	12046.57905
564.737	12383.25578
564.942	12385.28336
565.147	12644.75946
565.351	12352.84129
565.556	12233.19573
565.761	12184.51922
565.965	12652.86643
566.17	12429.88838
566.374	12596.11558
566.579	12279.84015
566.784	12776.48607
566.988	12855.51048
567.193	12825.11747
567.397	12792.6969
567.602	12695.42647
567.806	12488.68099
568.011	12889.95441
568.215	12962.88944
568.42	12873.74569
568.624	12839.30103
568.828	12602.19626
569.033	12699.47967
569.237	12776.48607
569.442	12829.16994
569.646	12701.50626
569.85	12750.14271
570.055	12991.25125
570.259	12821.06498
570.463	12827.14371
570.668	12942.63039
570.872	13181.65567
571.076	12616.38429
571.281	12940.60445
571.485	13214.06082
571.689	13155.32564
571.893	13005.43179
572.098	13131.0203
572.302	13019.61208
572.506	12918.31884
572.71	12865.64121
572.914	13124.94386
573.119	13139.12215
573.323	13043.92058
573.527	13082.40759
573.731	13187.73172
573.935	13104.68875
574.139	13726.33012
574.343	13258.61604
574.547	13499.58441
574.751	13438.84137
574.955	13325.44496
575.159	13384.16967
575.364	13254.56565
