Data from absorb_only_2.23.25_USB4F045381__14__0119.txt Node

Date: Sun Feb 23 19:14:19 EST 2025
User: ssocol
Spectrometer: USB4F04538
Trigger mode: 4
Integration Time (sec): 2.600000E-3
Scans to average: 1
Electric dark correction enabled: true
Nonlinearity correction enabled: true
Boxcar width: 0
XAxis mode: Wavelengths
Number of Pixels in Spectrum: 3648
>>>>>Begin Spectral Data<<<<<
345.52	-27.56942
345.736	-27.56942
345.952	-27.56942
346.168	39.86879
346.384	-27.56942
346.6	33.54542
346.816	58.84015
347.032	-17.03383
347.248	23.00695
347.464	14.57659
347.68	16.68414
347.896	-19.141
348.112	6.14661
348.328	-27.56942
348.544	6.14661
348.76	-19.141
348.975	-76.0251
349.191	-8.60492
349.407	-23.35526
349.623	-35.99745
349.839	-6.49763
350.055	-19.141
350.27	50.4082
350.486	60.94819
350.702	-38.10439
350.918	-2.28298
351.133	-40.21131
351.349	-19.141
351.565	4.03918
351.781	14.57659
351.996	-27.56942
352.212	-42.31821
352.428	31.43768
352.644	10.36155
352.859	6.14661
353.075	-59.17246
353.291	-10.71218
353.506	-35.99745
353.722	-10.71218
353.938	-2.28298
354.153	-27.56942
354.369	-82.34441
354.584	1.93177
354.8	-23.35526
355.016	10.36155
355.231	52.51615
355.447	-2.28298
355.662	25.11459
355.878	16.68414
356.093	8.25407
356.309	-76.0251
356.524	-35.99745
356.74	-25.46235
356.955	-2.28298
357.171	-27.56942
357.386	-21.24814
357.602	-31.78348
357.817	-6.49763
358.033	-19.141
358.248	-27.56942
358.464	-78.13156
358.679	-46.53192
358.895	-38.10439
359.11	-25.46235
359.325	58.84015
359.541	60.94819
359.756	-29.67646
359.972	-10.71218
360.187	-6.49763
360.402	-10.71218
360.618	1.93177
360.833	-17.03383
361.048	-17.03383
361.264	-8.60492
361.479	-14.92664
361.694	-27.56942
361.909	-31.78348
362.125	6.14661
362.34	-2.28298
362.555	39.86879
362.77	25.11459
362.986	14.57659
363.201	39.86879
363.416	29.32996
363.631	1.93177
363.847	6.14661
364.062	6.14661
364.277	-50.74553
364.492	-33.89048
364.707	-23.35526
364.922	-42.31821
365.138	-2.28298
365.353	14.57659
365.568	-42.31821
365.783	48.30027
365.998	-40.21131
366.213	-0.17561
366.428	-31.78348
366.643	-17.03383
366.858	31.43768
367.073	44.08449
367.288	-29.67646
367.503	-42.31821
367.718	18.79172
367.933	-33.89048
368.148	31.43768
368.363	18.79172
368.578	-8.60492
368.793	1.93177
369.008	8.25407
369.223	84.13817
369.438	-0.17561
369.653	25.11459
369.868	-57.06577
370.083	14.57659
370.298	-4.39031
370.513	-0.17561
370.728	-27.56942
370.943	-69.70555
371.157	65.16435
371.372	1.93177
371.587	-33.89048
371.802	-6.49763
372.017	-12.81942
372.232	67.27246
372.446	-8.60492
372.661	14.57659
372.876	-52.8523
373.091	-8.60492
373.306	-10.71218
373.52	56.73213
373.735	-52.8523
373.95	-44.42508
374.165	-6.49763
374.379	18.79172
374.594	4.03918
374.809	1.93177
375.023	-25.46235
375.238	6.14661
375.453	6.14661
375.667	23.00695
375.882	-8.60492
376.097	6.14661
376.311	56.73213
376.526	-65.49239
376.741	-44.42508
376.955	-67.59898
377.17	-6.49763
377.384	-52.8523
377.599	18.79172
377.813	-52.8523
378.028	-8.60492
378.242	10.36155
378.457	94.67998
378.672	-42.31821
378.886	-25.46235
379.101	67.27246
379.315	-25.46235
379.53	23.00695
379.744	-97.08857
379.958	31.43768
380.173	-107.61934
380.387	18.79172
380.602	-31.78348
380.816	35.65319
381.031	48.30027
381.245	-19.141
381.459	-19.141
381.674	-50.74553
381.888	25.11459
382.103	-57.06577
382.317	48.30027
382.531	44.08449
382.746	-17.03383
382.96	-44.42508
383.174	-19.141
383.388	-2.28298
383.603	23.00695
383.817	50.4082
384.031	-73.91861
384.246	35.65319
384.46	-29.67646
384.674	-61.27913
384.888	-61.27913
385.103	6.14661
385.317	27.22227
385.531	35.65319
385.745	35.65319
385.959	39.86879
386.174	-92.87609
386.388	23.00695
386.602	-59.17246
386.816	-21.24814
387.03	16.68414
387.244	63.05626
387.458	-23.35526
387.672	-6.49763
387.887	14.57659
388.101	-6.49763
388.315	-8.60492
388.529	-6.49763
388.743	-76.0251
388.957	-61.27913
389.171	-8.60492
389.385	6.14661
389.599	35.65319
389.813	39.86879
390.027	4.03918
390.241	-19.141
390.455	-19.141
390.669	14.57659
390.883	25.11459
391.097	1.93177
391.311	1.93177
391.525	-19.141
391.738	-27.56942
391.952	29.32996
392.166	31.43768
392.38	6.14661
392.594	54.62413
392.808	94.67998
393.022	31.43768
393.236	33.54542
393.449	-4.39031
393.663	-2.28298
393.877	23.00695
394.091	23.00695
394.305	-42.31821
394.518	-31.78348
394.732	-17.03383
394.946	-0.17561
395.16	31.43768
395.373	-6.49763
395.587	-61.27913
395.801	-12.81942
396.015	10.36155
396.228	35.65319
396.442	-21.24814
396.656	23.00695
396.869	82.02988
397.083	-12.81942
397.297	-6.49763
397.51	-6.49763
397.724	103.11382
397.938	71.48875
398.151	-40.21131
398.365	56.73213
398.578	33.54542
398.792	58.84015
399.005	-31.78348
399.219	-35.99745
399.433	-0.17561
399.646	25.11459
399.86	-33.89048
400.073	-42.31821
400.287	33.54542
400.5	-84.4508
400.714	63.05626
400.927	39.86879
401.141	41.97663
401.354	29.32996
401.567	-35.99745
401.781	65.16435
401.994	-2.28298
402.208	73.59693
402.421	-10.71218
402.635	-2.28298
402.848	23.00695
403.061	98.89685
403.275	-6.49763
403.488	52.51615
403.701	-44.42508
403.915	69.38059
404.128	-92.87609
404.341	33.54542
404.555	-0.17561
404.768	65.16435
404.981	98.89685
405.195	31.43768
405.408	-86.55716
405.621	1.93177
405.834	54.62413
406.048	-0.17561
406.261	-35.99745
406.474	60.94819
406.687	50.4082
406.9	35.65319
407.114	44.08449
407.327	-27.56942
407.54	-10.71218
407.753	-8.60492
407.966	84.13817
408.179	-48.63874
408.392	44.08449
408.605	75.70514
408.819	1.93177
409.032	4.03918
409.245	41.97663
409.458	-14.92664
409.671	1.93177
409.884	-8.60492
410.097	-40.21131
410.31	69.38059
410.523	18.79172
410.736	14.57659
410.949	35.65319
411.162	56.73213
411.375	6.14661
411.588	29.32996
411.801	-6.49763
412.014	31.43768
412.227	52.51615
412.44	10.36155
412.653	50.4082
412.865	14.57659
413.078	48.30027
413.291	37.76098
413.504	10.36155
413.717	56.73213
413.93	1.93177
414.143	23.00695
414.356	-6.49763
414.568	65.16435
414.781	12.46906
414.994	143.17933
415.207	-0.17561
415.42	29.32996
415.632	1.93177
415.845	25.11459
416.058	18.79172
416.271	33.54542
416.483	25.11459
416.696	48.30027
416.909	98.89685
417.121	-17.03383
417.334	-2.28298
417.547	65.16435
417.759	23.00695
417.972	86.24649
418.185	60.94819
418.397	52.51615
418.61	12.46906
418.823	65.16435
419.035	65.16435
419.248	44.08449
419.46	82.02988
419.673	29.32996
419.885	25.11459
420.098	94.67998
420.311	73.59693
420.523	92.57157
420.736	67.27246
420.948	58.84015
421.161	79.92161
421.373	90.46319
421.586	77.81336
421.798	-2.28298
422.01	73.59693
422.223	4.03918
422.435	-35.99745
422.648	63.05626
422.86	77.81336
423.073	82.02988
423.285	-21.24814
423.497	48.30027
423.71	-10.71218
423.922	115.76524
424.134	48.30027
424.347	-8.60492
424.559	54.62413
424.771	27.22227
424.984	-2.28298
425.196	27.22227
425.408	14.57659
425.621	-2.28298
425.833	63.05626
426.045	8.25407
426.257	94.67998
426.47	25.11459
426.682	23.00695
426.894	60.94819
427.106	25.11459
427.318	39.86879
427.531	12.46906
427.743	90.46319
427.955	25.11459
428.167	33.54542
428.379	157.94226
428.591	60.94819
428.804	151.61516
429.016	31.43768
429.228	50.4082
429.44	58.84015
429.652	88.35483
429.864	79.92161
430.076	107.33087
430.288	143.17933
430.5	37.76098
430.712	20.89932
430.924	73.59693
431.136	90.46319
431.348	77.81336
431.56	132.63502
431.772	41.97663
431.984	119.98255
432.196	92.57157
432.408	130.52622
432.62	35.65319
432.832	39.86879
433.044	103.11382
433.256	109.43943
433.468	141.07043
433.679	54.62413
433.891	128.41744
434.103	56.73213
434.315	176.92467
434.527	75.70514
434.739	153.72418
434.95	155.83321
435.162	113.65661
435.374	20.89932
435.586	98.89685
435.798	79.92161
436.009	107.33087
436.221	111.54801
436.433	92.57157
436.645	172.70621
436.856	113.65661
437.068	149.50617
437.28	136.85268
437.491	168.48784
437.703	111.54801
437.915	191.68993
438.126	181.14322
438.338	82.02988
438.55	132.63502
438.761	115.76524
438.973	225.4428
439.184	157.94226
439.396	157.94226
439.608	126.30869
439.819	109.43943
440.031	189.58055
440.242	109.43943
440.454	124.19996
440.665	157.94226
440.877	157.94226
441.088	151.61516
441.3	179.03394
441.511	157.94226
441.723	174.81543
441.934	166.37868
442.146	191.68993
442.357	183.25252
442.569	174.81543
442.78	278.19166
442.991	191.68993
443.203	250.76076
443.414	195.90876
443.626	204.34665
443.837	157.94226
444.048	229.66226
444.26	208.56572
444.471	179.03394
444.682	219.11374
444.894	225.4428
445.105	79.92161
445.316	212.78487
445.528	208.56572
445.739	217.0041
445.95	240.21127
446.161	217.0041
446.373	284.52232
446.584	259.20069
446.795	208.56572
447.006	217.0041
447.217	263.42077
447.429	179.03394
447.64	257.09068
447.851	240.21127
448.062	320.39917
448.273	193.79933
448.484	282.41208
448.695	229.66226
448.907	246.5409
449.118	191.68993
449.329	217.0041
449.54	193.79933
449.751	284.52232
449.962	297.18413
450.173	314.06758
450.384	208.56572
450.595	314.06758
450.806	381.61266
451.017	267.64093
451.228	371.05758
451.439	250.76076
451.65	406.94654
451.861	271.86117
452.072	305.62571
452.283	309.84661
452.494	417.50302
452.705	394.2793
452.915	347.8379
453.126	453.39803
453.337	362.61382
453.548	347.8379
453.759	411.16909
453.97	385.8348
454.181	455.50964
454.391	444.95174
454.602	516.75291
454.813	377.39057
455.024	508.30483
455.235	463.95624
455.445	390.05702
455.656	461.84457
455.867	415.39169
456.078	504.08088
456.288	447.06329
456.499	440.72869
456.71	546.32299
456.921	480.85017
457.131	605.47113
457.342	444.95174
457.553	622.37247
457.763	516.75291
457.974	613.9217
458.184	518.86497
458.395	664.62926
458.606	495.63314
458.816	799.88117
459.027	706.89075
459.237	639.27461
459.448	696.32496
459.659	647.72597
459.869	757.61034
460.08	829.47302
460.29	782.97236
460.501	825.2455
460.711	825.2455
460.922	734.3631
461.132	827.35926
461.343	736.47644
461.553	810.44948
461.764	909.80243
461.974	810.44948
462.184	808.3358
462.395	954.19992
462.605	1030.31699
462.816	863.29445
463.026	994.37177
463.236	1019.74468
463.447	1076.83684
463.657	1070.49307
463.867	1252.36358
464.078	1083.18066
464.288	1136.04754
464.498	1286.20273
464.709	1210.06564
464.919	1100.09774
465.129	1286.20273
465.339	1303.12252
465.55	1277.74289
465.76	1358.11266
465.97	1290.43267
466.18	1396.18328
466.391	1487.13043
466.601	1442.71435
466.811	1495.59062
467.021	1559.04165
467.231	1637.29615
467.441	1501.93576
467.651	1804.3678
467.862	1688.05421
468.072	1891.06604
468.282	1833.97297
468.492	1806.48248
468.702	1952.38393
468.912	1975.64116
469.122	2030.60975
469.332	2182.80531
469.542	2134.19161
469.752	2189.14591
469.962	2187.03238
470.172	2322.28012
470.382	2353.97326
470.592	2436.36476
470.802	2360.31162
471.012	2579.98204
471.222	2495.50763
471.432	2567.31208
471.642	2560.97693
471.852	2797.41285
472.062	2710.87914
472.272	2926.11516
472.482	3048.43736
472.691	3050.54591
472.901	2782.6404
473.111	3029.45967
473.321	3031.56837
473.531	3193.89046
473.741	3166.49211
473.95	3364.53959
474.16	3257.10679
474.37	3516.13177
474.58	3484.55774
474.79	3604.51702
474.999	3471.92699
475.209	3345.58412
475.419	3638.17895
475.628	3814.82369
475.838	3793.80174
476.048	4043.83317
476.258	3922.00477
476.467	4169.78948
476.677	4132.01049
476.886	4176.08531
477.096	4434.04889
477.306	4404.70367
477.515	4322.93381
477.725	4452.9114
477.935	4440.33659
478.144	4754.46725
478.354	4559.76528
478.563	5132.83924
478.773	5082.71178
478.982	4967.78607
479.192	5093.15611
479.401	5201.74262
479.611	5043.01808
479.82	5155.80985
480.03	5247.66411
480.239	5577.13063
480.449	5354.07495
480.658	5806.15897
480.868	5718.74548
481.077	5768.70115
481.287	5741.64352
481.496	6078.53848
481.705	5731.23567
481.915	5939.28043
482.124	5806.15897
482.333	6113.85581
482.543	6068.14974
482.752	6211.46248
482.961	6279.96386
483.171	6530.91809
483.38	6454.21619
483.589	6731.85125
483.799	6657.30341
484.008	6872.58294
484.217	6771.18397
484.426	7106.21421
484.636	6870.51412
484.845	7128.94177
485.054	6978.06276
485.263	7141.33748
485.472	7060.75098
485.682	7554.07475
485.891	7465.40975
486.1	7184.71618
486.309	7549.95168
486.518	7504.59221
486.727	7430.34514
486.936	7797.18558
487.146	7768.35727
487.355	7817.77472
487.564	7743.64402
487.773	8093.47044
487.982	8130.47638
488.191	7939.20847
488.4	8183.91796
488.609	8171.58648
488.818	8502.23631
489.027	8617.12819
489.236	8651.99444
489.445	8826.24571
489.654	8797.55459
489.863	8795.50508
490.072	8781.15806
490.281	9000.36642
490.49	8777.05875
490.698	9172.31407
490.907	9008.55718
491.116	9360.50004
491.325	9002.41413
491.534	9245.96894
491.743	9313.46678
491.952	9382.99113
492.16	9485.19853
492.369	9656.81714
492.578	9434.09989
492.787	9713.99886
492.996	9652.73227
493.204	9867.10548
493.413	10018.08904
493.622	10046.64459
493.831	9973.21034
494.039	9956.88909
494.248	10173.07164
494.457	10193.45809
494.665	10287.21814
494.874	10311.67259
495.083	10499.0936
495.291	10366.68807
495.5	10332.04982
495.709	10309.63479
495.917	10592.76333
496.126	10623.30209
496.335	10743.39449
496.543	10727.11324
496.752	10853.27309
496.96	10926.50666
497.169	10816.65069
497.377	10859.37646
497.586	11056.66357
497.794	11034.29608
498.003	10893.96024
498.211	11266.04162
498.42	11288.39583
498.628	11308.71678
498.837	11359.51472
499.045	11259.9448
499.254	11245.71854
499.462	11385.92719
499.671	11430.62142
499.879	11532.18183
500.087	11568.73778
500.296	11820.48792
500.504	11688.53918
500.713	11757.5631
500.921	11802.22028
501.129	11739.29305
501.338	11731.1728
501.546	12331.7192
501.754	11871.22779
501.962	12222.21008
502.171	12260.74344
502.379	12226.26635
502.587	12096.45119
502.795	12252.63137
503.004	12264.79943
503.212	12358.07945
503.42	12191.78716
503.628	12433.09846
503.837	12319.55254
504.045	12445.26284
504.253	12621.62027
504.461	12710.79473
504.669	12611.48607
504.877	12666.20894
505.085	12581.08256
505.294	12866.82312
505.502	12998.51037
505.71	12964.0712
505.918	12862.77085
506.126	13095.7426
506.334	12727.00704
506.542	13184.86248
506.75	13036.99948
506.958	13275.99876
507.166	13199.03983
507.374	13263.84776
507.582	12976.22637
507.79	13361.05144
507.998	13077.51241
508.206	13375.22618
508.414	13314.47588
508.622	13480.51821
508.83	13518.98772
509.037	13887.42352
509.245	13577.70183
509.453	13579.7264
509.661	13660.70643
509.869	13816.57844
510.077	13705.24318
510.285	13725.48665
510.492	14130.29678
510.7	14118.15392
510.908	13753.82697
511.116	14035.17558
511.324	13786.21518
511.531	14075.6533
511.739	13917.78466
511.947	14166.72488
512.155	13986.60105
512.362	14101.96332
512.57	13960.28925
512.778	14114.10628
512.985	14178.86743
513.193	14041.24729
513.401	14150.5347
513.608	14460.15125
513.816	14276.00527
514.024	14377.18604
514.231	14462.17476
514.439	14696.89352
514.646	14711.05713
514.854	14547.16099
515.061	14480.3863
515.269	14381.23318
515.477	14478.3628
515.684	15008.48485
515.892	14990.2753
516.099	15101.55556
516.307	14872.92411
516.514	15320.06908
516.722	14919.46011
516.929	14959.92599
517.136	14945.76295
517.344	15237.11473
517.551	15057.04353
517.759	15271.51039
517.966	15348.39505
518.173	15038.83404
518.381	15360.53477
518.588	15459.67638
518.796	15538.58591
519.003	15530.49258
519.21	15680.22106
519.418	15589.16945
519.625	15534.53924
519.832	15740.92313
520.039	15805.67301
520.247	15991.83556
520.454	15759.13393
520.661	16155.74922
520.868	15840.07183
521.076	16283.24495
521.283	15846.14225
521.49	15975.64708
521.697	16006.00055
521.904	16056.59039
522.112	16026.23638
522.319	16418.84355
522.526	15918.98807
522.733	16667.80215
522.94	16216.46062
523.147	16331.8166
523.354	16366.22218
523.561	16613.14987
523.768	16615.174
523.975	16953.2369
524.183	16594.93281
524.39	16835.81804
524.597	16744.72303
524.804	16459.32244
525.011	16552.42703
525.218	16461.3464
525.425	16854.03765
525.632	16789.25775
525.838	16837.84243
526.045	16809.5012
526.252	16900.59979
526.459	17408.82873
526.666	16827.72051
526.873	17461.48456
527.08	17226.57447
527.287	16900.59979
527.494	17137.48107
527.701	17101.03536
527.907	17400.72802
528.114	17453.38353
528.321	17524.26929
528.528	17611.36286
528.735	17842.29165
528.941	17580.9807
529.148	17601.23539
529.355	17884.83597
529.562	17299.47326
529.768	17635.66912
529.975	17593.13348
530.182	18142.16094
530.388	17903.06972
530.595	18057.05497
530.802	17854.44701
531.008	18456.29882
531.215	18113.79157
531.422	18332.65963
531.628	18496.83934
531.835	18217.14057
532.042	17783.54245
532.248	18401.57154
532.455	18221.19367
532.661	18496.83934
532.868	18083.39661
533.074	18523.1915
533.281	18504.94762
533.487	18565.76175
533.694	19066.59932
533.9	18948.97185
534.107	18892.19103
534.313	19044.28961
534.52	18772.55599
534.726	18855.69073
534.933	18859.74626
535.139	18950.99979
535.345	18896.2467
535.552	19064.57114
535.758	18882.05193
535.965	19271.46604
536.171	19013.86808
536.377	19389.13123
536.584	19107.16368
536.79	19139.61634
536.996	19374.92952
537.203	19336.38305
537.409	19172.07004
537.615	19648.85552
537.821	19583.91805
538.028	19886.31967
538.234	19573.77195
538.44	19575.80116
538.646	19563.62596
538.853	19794.98051
539.059	19342.46923
539.265	19683.3553
539.471	19748.29933
539.677	19539.27601
539.883	19801.06952
540.09	19784.83224
540.296	19797.01018
540.502	19967.51718
540.708	19797.01018
540.914	20249.73084
541.12	20196.9365
541.326	20747.35517
541.532	20286.28244
541.738	20783.9252
541.944	20280.19041
542.15	20692.50265
542.356	20771.73504
542.562	20934.28273
542.768	20328.92769
542.974	20899.73913
543.18	20562.49399
543.386	20635.62176
543.592	20991.18065
543.798	21046.04956
544.004	21100.92144
544.21	21170.0236
544.415	21029.79179
544.621	21485.10733
544.827	21334.66821
545.033	21334.66821
545.239	21003.37348
545.445	21381.42397
545.651	21383.45688
545.856	21515.60441
546.062	21674.20353
546.268	21330.6026
546.474	21208.64156
546.679	21176.12108
546.885	20934.28273
547.091	21373.29238
547.297	21245.22834
547.502	21499.33919
547.708	21519.67075
547.914	21424.11586
548.119	21651.83554
548.325	21470.87567
548.531	21247.26098
548.736	21908.0789
548.942	21554.23532
549.147	21369.22661
549.353	21635.56821
549.559	21674.20353
549.764	21432.24785
549.97	21725.04164
550.175	22215.2441
550.381	22264.07292
550.586	22003.67738
550.792	22009.77969
550.997	21962.99614
551.203	21983.33657
551.408	22119.6272
551.614	22455.33945
551.819	21995.54101
552.025	22833.89607
552.23	22636.46157
552.435	22703.62634
552.641	23074.1175
552.846	22546.91452
553.052	22410.57206
553.257	22687.34362
553.462	22632.39111
553.668	22650.70833
553.873	22754.51127
554.078	23045.61421
554.283	22575.40602
554.489	22434.99042
554.694	22723.98005
554.899	22945.85785
555.105	22884.78651
555.31	23070.04556
555.515	23149.45073
555.72	23100.58542
555.925	22954.00092
556.131	23206.46264
556.336	23287.91263
556.541	23715.60749
556.746	23375.47708
556.951	23338.82148
557.156	23072.08153
557.361	23406.02419
557.567	23735.97727
557.772	23275.6948
557.977	23002.8605
558.182	23446.75477
558.387	23222.75223
558.592	23542.47654
558.797	23399.91471
559.002	23298.09424
559.207	23642.27878
559.412	23538.40313
559.617	23621.91038
559.822	24098.60782
560.027	24047.67112
560.232	23603.57909
560.437	23768.56952
560.642	24004.88565
560.847	24259.57907
561.051	23919.31844
561.256	23790.97713
561.461	23955.98949
561.666	23799.12545
561.871	23905.05773
562.076	23835.79342
562.281	24157.69655
562.485	23595.43192
562.69	23797.08836
562.895	23776.7177
563.1	24284.03187
563.305	24310.52285
563.509	24186.22297
563.714	24023.22213
563.919	24284.03187
564.123	24251.42822
564.328	24355.35475
564.533	23874.49954
564.737	23949.87758
564.942	24261.61679
565.147	24530.61883
565.351	24771.12784
565.556	24471.51602
565.761	24428.71878
565.965	24555.07579
566.17	24445.02236
566.374	24656.98368
566.579	24620.29613
566.784	24188.26059
566.988	24577.49499
567.193	24720.16968
567.397	24834.31804
567.602	25138.06995
567.806	24565.2663
568.011	24970.89817
568.215	25350.11406
568.42	24954.58954
568.624	24972.93675
568.828	24756.8594
569.033	24822.0875
569.237	25172.7294
569.442	25009.63174
569.646	24687.55726
569.85	25040.21145
570.055	25231.85581
570.259	25231.85581
