Data from absorb_only_2.23.25_USB4F045381__31__0136.txt Node

Date: Sun Feb 23 19:17:34 EST 2025
User: ssocol
Spectrometer: USB4F04538
Trigger mode: 4
Integration Time (sec): 2.600000E-3
Scans to average: 1
Electric dark correction enabled: true
Nonlinearity correction enabled: true
Boxcar width: 0
XAxis mode: Wavelengths
Number of Pixels in Spectrum: 3648
>>>>>Begin Spectral Data<<<<<
345.52	15.10348
345.736	15.10348
345.952	15.10348
346.168	-86.03057
346.384	-14.39983
346.6	-5.9708
346.816	31.96461
347.032	23.53386
347.248	19.31862
347.464	38.28793
347.68	-60.75247
347.896	-12.29261
348.112	-31.25673
348.328	-69.17891
348.544	8.78094
348.76	69.90763
348.975	-12.29261
349.191	27.74919
349.407	-86.03057
349.623	-46.00521
349.839	-1.75614
350.055	23.53386
350.27	36.18013
350.486	-39.68458
350.702	8.78094
350.918	-14.39983
351.133	19.31862
351.349	36.18013
351.565	-24.93558
351.781	2.45862
351.996	-3.86348
352.212	-24.93558
352.428	2.45862
352.644	4.56604
352.859	-3.86348
353.075	48.82725
353.291	-33.36373
353.506	6.67348
353.722	-92.34952
353.938	-35.47071
354.153	12.99594
354.369	-43.89836
354.584	27.74919
354.8	8.78094
355.016	55.15113
355.231	-75.49848
355.447	-39.68458
355.662	-18.61421
355.878	36.18013
356.093	-10.18537
356.309	25.64151
356.524	21.42623
356.74	17.21104
356.955	-16.50703
357.171	-5.9708
357.386	-12.29261
357.602	-60.75247
357.817	19.31862
358.033	19.31862
358.248	21.42623
358.464	-73.39198
358.679	-67.07234
358.895	27.74919
359.11	-22.82848
359.325	15.10348
359.541	36.18013
359.756	-5.9708
359.972	-22.82848
360.187	-3.86348
360.402	-56.53909
360.618	-39.68458
360.833	-18.61421
361.048	-77.60495
361.264	-98.66823
361.479	-5.9708
361.694	-64.96574
361.909	4.56604
362.125	38.28793
362.34	23.53386
362.555	-22.82848
362.77	-48.11204
362.986	-14.39983
363.201	-20.72135
363.416	-81.81781
363.631	-88.13691
363.847	-16.50703
364.062	2.45862
364.277	-24.93558
364.492	-56.53909
364.707	44.61145
364.922	-10.18537
365.138	6.67348
365.353	-22.82848
365.568	40.39575
365.783	-10.18537
365.998	-3.86348
366.213	-8.0781
366.428	-10.18537
366.643	-48.11204
366.858	-20.72135
367.073	-56.53909
367.288	69.90763
367.503	-5.9708
367.718	-1.75614
367.933	19.31862
368.148	-73.39198
368.363	-31.25673
368.578	-18.61421
368.793	63.58328
369.008	31.96461
369.223	19.31862
369.438	-39.68458
369.653	-27.04265
369.868	-27.04265
370.083	-14.39983
370.298	-39.68458
370.513	2.45862
370.728	-27.04265
370.943	6.67348
371.157	8.78094
371.372	-113.41097
371.587	-58.64579
371.802	-10.18537
372.017	-3.86348
372.232	-8.0781
372.446	-22.82848
372.661	10.88843
372.876	-14.39983
373.091	-48.11204
373.306	12.99594
373.52	40.39575
373.735	-5.9708
373.95	-27.04265
374.165	-24.93558
374.379	19.31862
374.594	-18.61421
374.809	-8.0781
375.023	61.47521
375.238	-48.11204
375.453	27.74919
375.667	-5.9708
375.882	-14.39983
376.097	-29.1497
376.311	4.56604
376.526	-88.13691
376.741	-39.68458
376.955	-5.9708
377.17	-3.86348
377.384	2.45862
377.599	-43.89836
377.813	-31.25673
378.028	40.39575
378.242	-24.93558
378.457	-10.18537
378.672	-14.39983
378.886	-52.32561
379.101	15.10348
379.315	-39.68458
379.53	-64.96574
379.744	29.85689
379.958	-29.1497
380.173	-90.24323
380.387	10.88843
380.602	-5.9708
380.816	10.88843
381.031	19.31862
381.245	27.74919
381.459	-31.25673
381.674	15.10348
381.888	-73.39198
382.103	-10.18537
382.317	-16.50703
382.531	61.47521
382.746	-18.61421
382.96	-22.82848
383.174	15.10348
383.388	-22.82848
383.603	-54.43236
383.817	-10.18537
384.031	10.88843
384.246	-27.04265
384.46	-37.57766
384.674	12.99594
384.888	-41.79148
385.103	10.88843
385.317	-27.04265
385.531	-54.43236
385.745	40.39575
385.959	-3.86348
386.174	27.74919
386.388	23.53386
386.602	-54.43236
386.816	10.88843
387.03	12.99594
387.244	46.71934
387.458	-35.47071
387.672	17.21104
387.887	-24.93558
388.101	-37.57766
388.315	-3.86348
388.529	46.71934
388.743	-31.25673
388.957	46.71934
389.171	15.10348
389.385	15.10348
389.599	-22.82848
389.813	15.10348
390.027	-54.43236
390.241	36.18013
390.455	19.31862
390.669	2.45862
390.883	25.64151
391.097	78.34042
391.311	-1.75614
391.525	19.31862
391.738	10.88843
391.952	-54.43236
392.166	-12.29261
392.38	90.99028
392.594	-20.72135
392.808	-54.43236
393.022	10.88843
393.236	2.45862
393.449	-35.47071
393.663	-29.1497
393.877	-48.11204
394.091	48.82725
394.305	72.0158
394.518	27.74919
394.732	-27.04265
394.946	-56.53909
395.16	-22.82848
395.373	-18.61421
395.587	-20.72135
395.801	-39.68458
396.015	17.21104
396.228	-48.11204
396.442	8.78094
396.656	19.31862
396.869	-20.72135
397.083	-39.68458
397.297	-14.39983
397.51	0.35123
397.724	48.82725
397.938	12.99594
398.151	-14.39983
398.365	21.42623
398.578	-88.13691
398.792	36.18013
399.005	21.42623
399.219	0.35123
399.433	-43.89836
399.646	-48.11204
399.86	-60.75247
400.073	57.25913
400.287	-18.61421
400.5	-3.86348
400.714	-5.9708
400.927	27.74919
401.141	-22.82848
401.354	-12.29261
401.567	-39.68458
401.781	2.45862
401.994	-22.82848
402.208	-5.9708
402.421	44.61145
402.635	-1.75614
402.848	12.99594
403.061	6.67348
403.275	34.07236
403.488	-64.96574
403.701	29.85689
403.915	31.96461
404.128	-56.53909
404.341	-10.18537
404.555	4.56604
404.768	44.61145
404.981	-52.32561
405.195	59.36716
405.408	-62.85911
405.621	12.99594
405.834	6.67348
406.048	-5.9708
406.261	-12.29261
406.474	-39.68458
406.687	50.93519
406.9	10.88843
407.114	31.96461
407.327	-16.50703
407.54	-12.29261
407.753	21.42623
407.966	-64.96574
408.179	-58.64579
408.392	19.31862
408.605	53.04315
408.819	6.67348
409.032	-5.9708
409.245	-27.04265
409.458	-14.39983
409.671	36.18013
409.884	40.39575
410.097	-50.21884
410.31	-12.29261
410.523	2.45862
410.736	-29.1497
410.949	2.45862
411.162	2.45862
411.375	-22.82848
411.588	46.71934
411.801	76.23219
412.014	-48.11204
412.227	2.45862
412.44	-24.93558
412.653	15.10348
412.865	-31.25673
413.078	-48.11204
413.291	-27.04265
413.504	-10.18537
413.717	6.67348
413.93	-16.50703
414.143	-3.86348
414.356	-20.72135
414.568	74.12398
414.781	-18.61421
414.994	118.40105
415.207	-1.75614
415.42	-12.29261
415.632	27.74919
415.845	-29.1497
416.058	17.21104
416.271	10.88843
416.483	-12.29261
416.696	-10.18537
416.909	-37.57766
417.121	80.44868
417.334	31.96461
417.547	-35.47071
417.759	-54.43236
417.972	40.39575
418.185	10.88843
418.397	48.82725
418.61	-35.47071
418.823	27.74919
419.035	-5.9708
419.248	46.71934
419.46	-14.39983
419.673	-27.04265
419.885	15.10348
420.098	61.47521
420.311	-27.04265
420.523	48.82725
420.736	80.44868
420.948	-39.68458
421.161	-37.57766
421.373	42.50359
421.586	2.45862
421.798	2.45862
422.01	-71.28546
422.223	19.31862
422.435	72.0158
422.648	10.88843
422.86	-48.11204
423.073	4.56604
423.285	57.25913
423.497	-54.43236
423.71	-54.43236
423.922	25.64151
424.134	2.45862
424.347	57.25913
424.559	-64.96574
424.771	-1.75614
424.984	-5.9708
425.196	-69.17891
425.408	10.88843
425.621	2.45862
425.833	112.07516
426.045	17.21104
426.257	2.45862
426.47	-10.18537
426.682	-39.68458
426.894	-18.61421
427.106	23.53386
427.318	-10.18537
427.531	-24.93558
427.743	29.85689
427.955	-29.1497
428.167	21.42623
428.379	4.56604
428.591	10.88843
428.804	-54.43236
429.016	-5.9708
429.228	19.31862
429.44	34.07236
429.652	-46.00521
429.864	-22.82848
430.076	-79.71139
430.288	90.99028
430.5	10.88843
430.712	46.71934
430.924	82.55695
431.136	-18.61421
431.348	-46.00521
431.56	10.88843
431.772	-24.93558
431.984	10.88843
432.196	65.69137
432.408	23.53386
432.62	-77.60495
432.832	-20.72135
433.044	-1.75614
433.256	61.47521
433.468	-10.18537
433.679	-20.72135
433.891	36.18013
434.103	-1.75614
434.315	-12.29261
434.527	12.99594
434.739	-1.75614
434.95	-35.47071
435.162	21.42623
435.374	31.96461
435.586	19.31862
435.798	82.55695
436.009	-33.36373
436.221	88.88192
436.433	25.64151
436.645	-5.9708
436.856	55.15113
437.068	27.74919
437.28	74.12398
437.491	23.53386
437.703	36.18013
437.915	63.58328
438.126	46.71934
438.338	44.61145
438.55	-31.25673
438.761	86.77357
438.973	27.74919
439.184	27.74919
439.396	-29.1497
439.608	10.88843
439.819	57.25913
440.031	2.45862
440.242	86.77357
440.454	27.74919
440.665	10.88843
440.877	74.12398
441.088	-1.75614
441.3	-64.96574
441.511	67.79949
441.723	44.61145
441.934	38.28793
442.146	15.10348
442.357	61.47521
442.569	-48.11204
442.78	25.64151
442.991	38.28793
443.203	59.36716
443.414	84.66525
443.626	-75.49848
443.837	2.45862
444.048	61.47521
444.26	2.45862
444.471	19.31862
444.682	36.18013
444.894	46.71934
445.105	-22.82848
445.316	27.74919
445.528	48.82725
445.739	6.67348
445.95	23.53386
446.161	19.31862
446.373	25.64151
446.584	-14.39983
446.795	-50.21884
447.006	34.07236
447.217	29.85689
447.429	6.67348
447.64	6.67348
447.851	61.47521
448.062	-62.85911
448.273	-43.89836
448.484	48.82725
448.695	31.96461
448.907	-14.39983
449.118	82.55695
449.329	57.25913
449.54	19.31862
449.751	8.78094
449.962	19.31862
450.173	-1.75614
450.384	44.61145
450.595	90.99028
450.806	10.88843
451.017	103.64094
451.228	53.04315
451.439	8.78094
451.65	90.99028
451.861	-67.07234
452.072	-5.9708
452.283	80.44868
452.494	59.36716
452.705	46.71934
452.915	-12.29261
453.126	-35.47071
453.337	31.96461
453.548	27.74919
453.759	46.71934
453.97	57.25913
454.181	-14.39983
454.391	23.53386
454.602	15.10348
454.813	82.55695
455.024	80.44868
455.235	0.35123
455.445	-3.86348
455.656	44.61145
455.867	72.0158
456.078	48.82725
456.288	86.77357
456.499	38.28793
456.71	63.58328
456.921	36.18013
457.131	2.45862
457.342	86.77357
457.553	36.18013
457.763	53.04315
457.974	63.58328
458.184	72.0158
458.395	90.99028
458.606	48.82725
458.816	90.99028
459.027	120.50972
459.237	40.39575
459.448	40.39575
459.659	42.50359
459.869	84.66525
460.08	2.45862
460.29	112.07516
460.501	114.18377
460.711	107.85801
460.922	72.0158
461.132	137.37989
461.343	63.58328
461.553	61.47521
461.764	44.61145
461.974	74.12398
462.184	99.42397
462.395	48.82725
462.605	152.14241
462.816	78.34042
463.026	55.15113
463.236	128.94464
463.447	171.12431
463.657	120.50972
463.867	21.42623
464.078	145.81549
464.288	84.66525
464.498	78.34042
464.709	86.77357
464.919	147.92445
465.129	118.40105
465.339	116.2924
465.55	80.44868
465.76	128.94464
465.97	65.69137
466.18	44.61145
466.391	76.23219
466.601	150.03342
466.811	112.07516
467.021	107.85801
467.231	103.64094
467.441	65.69137
467.651	175.34274
467.862	187.99852
468.072	171.12431
468.282	221.75083
468.492	112.07516
468.702	154.25143
468.912	171.12431
469.122	63.58328
469.332	99.42397
469.542	198.54556
469.752	196.43612
469.962	194.32669
470.172	223.86052
470.382	276.60902
470.592	228.07995
470.802	181.67054
471.012	251.28824
471.222	310.37423
471.432	278.71921
471.642	221.75083
471.852	348.36559
472.062	225.97022
472.272	346.25481
472.482	291.38072
472.691	266.05836
472.901	259.7282
473.111	318.81625
473.321	285.04988
473.531	344.14405
473.741	323.03738
473.95	449.70275
474.16	348.36559
474.37	390.5848
474.58	356.80889
474.79	477.15454
474.999	477.15454
475.209	335.70117
475.419	430.69919
475.628	470.81928
475.838	502.49691
476.048	553.18786
476.258	608.11191
476.467	555.30016
476.677	534.1778
476.886	584.87373
477.096	567.97422
477.306	654.59284
477.515	523.61715
477.725	633.46441
477.935	770.81955
478.144	732.77811
478.354	753.91183
478.563	844.79808
478.773	798.29594
478.982	694.74011
479.192	703.19269
479.401	846.91191
479.611	874.39258
479.82	846.91191
480.03	933.58639
480.239	923.01562
480.449	977.98559
480.658	935.70057
480.868	1032.96009
481.077	1047.76162
481.287	1024.5022
481.496	1121.7732
481.705	942.04314
481.915	1147.14995
482.124	1174.64211
482.333	1282.50154
482.543	1096.3971
482.752	1362.87147
482.961	1413.63241
483.171	1436.89795
483.38	1238.08789
483.589	1250.77739
483.799	1593.41049
484.008	1532.07507
484.217	1413.63241
484.426	1568.03046
484.636	1474.96889
484.845	1697.04245
485.054	1589.1805
485.263	1574.37549
485.472	1764.71669
485.682	1745.68368
485.891	1794.32299
486.1	1646.28466
486.309	1705.50191
486.518	1900.05258
486.727	1857.76219
486.936	1823.92846
487.146	2039.59457
487.355	2048.05076
487.564	2071.30471
487.773	2001.54037
487.982	1993.08359
488.191	2246.73613
488.4	2071.30471
488.609	2185.44723
488.818	2259.41567
489.027	2162.19785
489.236	2274.20805
489.445	2377.74165
489.654	2379.85433
489.863	2449.56704
490.072	2369.29081
490.281	2563.61659
490.49	2396.75543
490.698	2597.40255
490.907	2578.39832
491.116	2675.52058
491.325	2451.67936
491.534	2677.63164
491.743	2660.74281
491.952	2700.85245
492.16	2802.16099
492.369	2901.32828
492.578	2751.51057
492.787	3084.80773
492.996	2844.36364
493.204	2878.12172
493.413	2920.31416
493.622	3082.69943
493.831	2939.29886
494.039	3230.24168
494.248	3065.83246
494.457	3255.52656
494.665	3013.11678
494.874	3198.63221
495.083	3145.94153
495.291	3226.0273
495.5	3297.66264
495.709	3426.13508
495.917	3310.30213
496.126	3541.91417
496.335	3356.64165
496.543	3527.18171
496.752	3352.42931
496.96	3655.53399
497.169	3428.24064
497.377	3432.45171
497.586	3445.08448
497.794	3470.3481
498.003	3596.62682
498.211	3798.53185
498.42	3522.97226
498.628	3788.02036
498.837	3512.44834
499.045	3869.9969
499.254	3588.2103
499.462	3827.96141
499.671	3727.04409
499.879	3848.98015
500.087	3756.48295
500.296	4010.75726
500.504	3804.83851
500.713	4031.75843
500.921	4073.75459
501.129	3983.45268
501.338	3924.6311
501.546	4331.84622
501.754	4042.25825
501.962	4092.65015
502.171	4019.15798
502.379	4166.11682
502.587	4071.65498
502.795	4319.26387
503.004	4056.95712
503.212	4466.00932
503.42	4168.21549
503.628	4291.99945
503.837	4088.45128
504.045	4453.43533
504.253	4621.02309
504.461	4562.38352
504.669	4329.74922
504.877	4671.27162
505.085	4549.81563
505.294	4604.27071
505.502	4388.45716
505.71	4543.53139
505.918	4547.72091
506.126	4600.0824
506.334	4510.01204
506.542	4870.04446
506.75	4635.68025
506.958	4859.58784
507.166	4706.85651
507.374	4834.48964
507.582	4834.48964
507.79	4888.86492
507.998	4874.22694
508.206	4727.78575
508.414	4723.60008
508.622	4849.13066
508.83	4805.20426
509.037	5166.7721
509.245	4675.45842
509.453	4968.30862
509.661	5010.10776
509.869	4982.93937
510.077	4855.40504
510.285	5010.10776
510.492	5223.13927
510.7	5248.18588
510.908	4974.57908
511.116	5402.56555
511.324	4968.30862
511.531	5279.48942
511.739	5235.663
511.947	5371.28274
512.155	5164.6841
512.362	5260.70793
512.57	5229.40124
512.778	5473.45366
512.985	5369.19704
513.193	5504.71919
513.401	5402.56555
513.608	5471.36911
513.816	5310.78769
514.024	5446.35259
514.231	5348.33867
514.439	5690.11893
514.646	5435.92804
514.854	5610.98233
515.061	5460.94597
515.269	5696.3651
515.477	5373.36843
515.684	5648.47234
515.892	5673.46142
516.099	5694.28307
516.307	5544.31458
516.514	5864.93153
516.722	5877.41177
516.929	5802.51757
517.136	5767.14024
517.344	5808.75993
517.551	5752.57112
517.759	5973.06542
517.966	5881.57166
518.173	5968.9076
518.381	5948.1171
518.588	5985.5383
518.796	5819.16337
519.003	5979.30196
519.21	6008.40305
519.418	6288.78416
519.625	6126.83841
519.832	6226.51421
520.039	6004.24604
520.247	6348.95843
520.454	6243.12159
520.661	6145.53174
520.868	6112.29783
521.076	6436.07258
521.283	6218.20996
521.49	6292.93474
521.697	6160.06969
521.904	6452.66109
522.112	6101.911
522.319	6477.54107
522.526	6226.51421
522.733	6587.38772
522.94	6386.2981
523.147	6645.3937
523.354	6587.38772
523.561	6635.03682
523.768	6527.29101
523.975	6494.12587
524.183	6492.05285
524.39	6668.17682
524.597	6485.83366
524.804	6877.23771
525.011	6811.02581
525.218	6699.24023
525.425	6610.17794
525.632	6775.84124
525.838	6647.46501
526.045	6831.71953
526.252	6701.31094
526.459	6986.85009
526.666	6724.08724
526.873	6823.44231
527.08	6891.71846
527.287	7084.00057
527.494	6889.64985
527.701	7179.03619
527.907	6728.22809
528.114	7323.56566
528.321	6924.81315
528.528	7183.16711
528.735	7280.21816
528.941	7261.63769
529.148	7042.666
529.355	7356.58585
529.562	7253.37913
529.768	7263.70227
529.975	6926.88137
530.182	7238.9258
530.388	7243.05543
530.595	7399.91635
530.802	7199.68989
531.008	7271.96039
531.215	7575.20415
531.422	7558.7131
531.628	7391.66366
531.835	7742.09934
532.042	7414.35772
532.248	7814.17177
532.455	7478.29958
532.661	7618.48664
532.868	7492.73518
533.074	7575.20415
533.281	7503.04569
533.487	7702.96355
533.694	7517.47948
533.9	7900.62503
534.107	7822.40699
534.313	7917.08819
534.52	7610.24308
534.726	7877.98604
534.933	7954.12547
535.139	7834.7592
535.345	7884.16056
535.552	7824.46575
535.758	8155.65726
535.965	8081.64772
536.171	7700.90356
536.377	8032.29353
536.584	7777.10915
536.79	7987.04193
536.996	8065.19762
537.203	8178.26612
537.409	7982.92766
537.615	8190.5972
537.821	8143.32414
538.028	8463.75477
538.234	8276.89485
538.44	8398.06406
538.646	8093.98445
538.853	8367.26475
539.059	8112.48819
539.265	8258.40542
539.471	8338.51478
539.677	8334.40733
539.883	8266.62314
540.09	8270.73188
540.296	8381.6383
540.502	8465.80729
540.708	8582.7694
540.914	8689.41841
541.12	8691.46886
541.326	8927.14897
541.532	8621.74315
541.738	8925.1006
541.944	8572.51202
542.15	8777.57116
542.356	8927.14897
542.562	8937.39053
542.768	8685.31745
542.974	8740.67414
543.18	8974.25649
543.386	9060.25491
543.592	8882.0808
543.798	9127.80358
544.004	9043.87663
544.21	8804.21534
544.415	8798.06696
544.621	9166.68675
544.827	9135.99003
545.033	9129.85022
545.239	9144.1762
545.445	9311.93294
545.651	8898.47022
545.856	9152.36209
546.062	9140.08314
546.268	9401.90256
546.474	9045.92398
546.679	9176.91814
546.885	9062.30211
547.091	9017.25955
547.297	9004.97375
547.502	9338.51819
547.708	9144.1762
547.914	9144.1762
548.119	9017.25955
548.325	9318.06825
548.531	9004.97375
548.736	9363.05595
548.942	9007.02143
549.147	9320.11332
549.353	9250.57164
549.559	9387.59134
549.764	9271.02708
549.97	9363.05595
550.175	9418.25726
550.381	9708.38333
550.586	9295.57139
550.792	9636.9028
550.997	9822.71326
551.203	9685.92006
551.408	9628.73239
551.614	9936.9963
551.819	9739.01208
552.025	9863.53396
552.23	9769.63741
552.435	9606.26247
552.641	9969.64015
552.846	10006.36005
553.052	9669.58196
553.257	9969.64015
553.462	9761.47099
553.668	10073.66781
553.873	9990.04067
554.078	10112.41377
554.283	9781.88659
554.489	10196.0063
554.694	9810.46589
554.899	10130.76535
555.105	10014.51939
555.31	10126.68732
555.515	10124.64828
555.72	10120.57017
555.925	9865.57483
556.131	10352.9351
556.336	10242.88953
556.541	10316.25758
556.746	10222.5064
556.951	10389.60834
557.156	10096.1003
557.361	10173.58132
557.567	10281.61373
557.772	10352.9351
557.977	10320.33307
558.182	10312.18203
558.387	10283.65171
558.592	10334.59688
558.797	10132.80435
559.002	10454.79475
559.207	10198.04485
559.412	10145.03802
559.617	10322.3708
559.822	10515.89503
560.027	10656.38261
560.232	10583.09214
560.437	10703.19876
560.642	10674.70274
560.847	10876.16018
561.051	10908.7082
561.256	10517.9315
561.461	10654.34698
561.666	10556.62218
561.871	10642.13294
562.076	10754.07864
562.281	10945.32123
562.485	10745.93836
562.69	10540.33193
562.895	10493.49293
563.1	10747.97345
563.305	10725.58683
563.509	10900.57147
563.714	10631.95423
563.919	10837.50558
564.123	10780.53323
564.328	10886.33175
564.533	10654.34698
564.737	11049.03844
564.942	10792.74236
565.147	11120.20038
565.351	11148.66146
565.556	10888.36603
565.761	10750.00853
565.965	11118.16736
566.17	11020.56992
566.374	11120.20038
566.579	11193.38182
566.784	11244.19426
566.988	11022.60346
567.193	11114.1013
567.397	11042.93822
567.602	10967.69406
567.806	11038.87136
568.011	10831.40184
568.215	11286.87172
568.42	11148.66146
568.624	11240.12951
568.828	11036.83791
569.033	10937.18532
569.237	11266.54969
569.442	11103.93596
569.646	11266.54969
569.85	11244.19426
570.055	11816.93593
570.259	11366.11799
570.463	11492.06832
570.668	11402.68808
570.872	11038.87136
571.076	11388.46676
571.281	11624.07372
571.485	11567.21468
571.689	11583.46085
571.893	11431.12928
572.098	11699.19795
572.302	11425.0349
572.506	11548.93702
572.71	11116.13434
572.914	11668.74366
573.119	11362.05445
573.323	11443.31778
573.527	11534.72053
573.731	11727.62015
573.935	11652.50055
574.139	11794.60855
574.343	11457.53726
574.547	11721.52982
574.751	11687.01648
