Data from absorb_only_2.23.25_USB4F045381__60__0165.txt Node

Date: Sun Feb 23 19:23:45 EST 2025
User: ssocol
Spectrometer: USB4F04538
Trigger mode: 4
Integration Time (sec): 2.600000E-3
Scans to average: 1
Electric dark correction enabled: true
Nonlinearity correction enabled: true
Boxcar width: 0
XAxis mode: Wavelengths
Number of Pixels in Spectrum: 3648
>>>>>Begin Spectral Data<<<<<
345.52	7.37596
345.736	7.37596
345.952	7.37596
346.168	-53.73012
346.384	-34.76838
346.6	-7.37567
346.816	-11.5902
347.032	7.37596
347.248	-43.19607
347.464	57.9618
347.68	-22.12611
347.896	-22.12611
348.112	11.59093
348.328	-17.91182
348.544	-24.23321
348.76	43.20621
348.975	28.45175
349.191	-24.23321
349.407	-30.55439
349.623	26.34407
349.839	-32.6614
350.055	-97.96616
350.27	5.26851
350.486	-17.91182
350.702	15.80599
350.918	-51.62336
351.133	-41.08919
351.349	41.09836
351.565	57.9618
351.781	22.12877
351.996	-13.69743
352.212	-15.80464
352.428	28.45175
352.644	9.48343
352.859	26.34407
353.075	-47.40976
353.291	-1.05368
353.506	-7.37567
353.722	32.66719
353.938	-47.40976
354.153	-26.3403
354.369	-24.23321
354.584	-15.80464
354.8	91.69308
355.016	-7.37567
355.231	-26.3403
355.447	-15.80464
355.662	74.82672
355.878	-32.6614
356.093	34.77495
356.309	-57.94356
356.524	-72.68981
356.74	45.31408
356.955	74.82672
357.171	15.80599
357.386	-17.91182
357.602	-17.91182
357.817	-55.83685
358.033	24.2364
358.248	-9.48295
358.464	-9.48295
358.679	11.59093
358.895	-26.3403
359.11	-64.26353
359.325	24.2364
359.541	-38.98228
359.756	-51.62336
359.972	-51.62336
360.187	-24.23321
360.402	-9.48295
360.618	83.25972
360.833	30.55946
361.048	26.34407
361.264	-9.48295
361.479	-1.05368
361.694	-5.26836
361.909	26.34407
362.125	-26.3403
362.34	43.20621
362.555	-26.3403
362.77	9.48343
362.986	-13.69743
363.201	-41.08919
363.416	-100.07236
363.631	-9.48295
363.847	24.2364
364.062	-17.91182
364.277	13.69845
364.492	64.28597
364.707	-1.05368
364.922	-32.6614
365.138	-17.91182
365.353	-9.48295
365.568	85.36802
365.783	24.2364
365.998	-3.16104
366.213	26.34407
366.428	-9.48295
366.643	-51.62336
366.858	-5.26836
367.073	-15.80464
367.288	-43.19607
367.503	-41.08919
367.718	24.2364
367.933	-28.44736
368.148	32.66719
368.363	-15.80464
368.578	-26.3403
368.793	-51.62336
369.008	-1.05368
369.223	-22.12611
369.438	60.06984
369.653	-57.94356
369.868	-47.40976
370.083	-49.51657
370.298	-36.87534
370.513	45.31408
370.728	45.31408
370.943	-41.08919
371.157	7.37596
371.372	9.48343
371.587	15.80599
371.802	57.9618
372.017	-26.3403
372.232	-68.47672
372.446	-30.55439
372.661	-13.69743
372.876	-13.69743
373.091	-41.08919
373.306	32.66719
373.52	-17.91182
373.735	28.45175
373.95	-17.91182
374.165	-5.26836
374.379	24.2364
374.594	-1.05368
374.809	-1.05368
375.023	1.05369
375.238	34.77495
375.453	11.59093
375.667	1.05369
375.882	-28.44736
376.097	-64.26353
376.311	24.2364
376.526	-64.26353
376.741	-76.90279
376.955	15.80599
377.17	-5.26836
377.384	43.20621
377.599	1.05369
377.813	49.5299
378.028	7.37596
378.242	-41.08919
378.457	68.5022
378.672	60.06984
378.886	43.20621
379.101	-47.40976
379.315	5.26851
379.53	-30.55439
379.744	-26.3403
379.958	22.12877
380.173	20.02115
380.387	49.5299
380.602	-1.05368
380.816	-9.48295
381.031	-57.94356
381.245	1.05369
381.459	-38.98228
381.674	-1.05368
381.888	15.80599
382.103	-17.91182
382.317	51.63784
382.531	49.5299
382.746	1.05369
382.96	24.2364
383.174	-24.23321
383.388	-22.12611
383.603	-13.69743
383.817	-9.48295
384.031	-74.79631
384.246	-34.76838
384.46	-11.5902
384.674	15.80599
384.888	7.37596
385.103	-17.91182
385.317	32.66719
385.531	-1.05368
385.745	-47.40976
385.959	-57.94356
386.174	15.80599
386.388	-30.55439
386.602	-66.37014
386.816	20.02115
387.03	-28.44736
387.244	-57.94356
387.458	-41.08919
387.672	-57.94356
387.887	-9.48295
388.101	-15.80464
388.315	-79.00925
388.529	11.59093
388.743	20.02115
388.957	17.91356
389.171	-22.12611
389.385	-24.23321
389.599	-43.19607
389.813	3.16109
390.027	-13.69743
390.241	9.48343
390.455	-5.26836
390.669	49.5299
390.883	-28.44736
391.097	-43.19607
391.311	15.80599
391.525	-24.23321
391.738	55.85379
391.952	-97.96616
392.166	72.71852
392.38	-34.76838
392.594	32.66719
392.808	-47.40976
393.022	26.34407
393.236	36.88273
393.449	32.66719
393.663	-57.94356
393.877	5.26851
394.091	9.48343
394.305	-22.12611
394.518	-1.05368
394.732	-24.23321
394.946	-1.05368
395.16	45.31408
395.373	9.48343
395.587	9.48343
395.801	15.80599
396.015	-41.08919
396.228	7.37596
396.442	51.63784
396.656	-38.98228
396.869	15.80599
397.083	-26.3403
397.297	-43.19607
397.51	-15.80464
397.724	-30.55439
397.938	53.7458
398.151	-38.98228
398.365	55.85379
398.578	-7.37567
398.792	15.80599
399.005	74.82672
399.219	-1.05368
399.433	49.5299
399.646	34.77495
399.86	-30.55439
400.073	38.99053
400.287	-43.19607
400.5	-55.83685
400.714	7.37596
400.927	-22.12611
401.141	-13.69743
401.354	41.09836
401.567	57.9618
401.781	-9.48295
401.994	60.06984
402.208	55.85379
402.421	20.02115
402.635	22.12877
402.848	-3.16104
403.061	-24.23321
403.275	-26.3403
403.488	-34.76838
403.701	17.91356
403.915	5.26851
404.128	45.31408
404.341	49.5299
404.555	28.45175
404.768	-32.6614
404.981	13.69845
405.195	-60.05024
405.408	28.45175
405.621	7.37596
405.834	26.34407
406.048	13.69845
406.261	68.5022
406.474	-34.76838
406.687	-28.44736
406.9	-76.90279
407.114	15.80599
407.327	28.45175
407.54	-22.12611
407.753	11.59093
407.966	11.59093
408.179	72.71852
408.392	-49.51657
408.605	-74.79631
408.819	34.77495
409.032	26.34407
409.245	-9.48295
409.458	26.34407
409.671	3.16109
409.884	-1.05368
410.097	28.45175
410.31	26.34407
410.523	17.91356
410.736	28.45175
410.949	-1.05368
411.162	9.48343
411.375	26.34407
411.588	41.09836
411.801	-62.1569
412.014	53.7458
412.227	-7.37567
412.44	49.5299
412.653	62.17789
412.865	43.20621
413.078	51.63784
413.291	32.66719
413.504	11.59093
413.717	34.77495
413.93	11.59093
414.143	41.09836
414.356	-43.19607
414.568	57.9618
414.781	34.77495
414.994	1.05369
415.207	-32.6614
415.42	-34.76838
415.632	64.28597
415.845	-1.05368
416.058	-13.69743
416.271	53.7458
416.483	26.34407
416.696	-13.69743
416.909	-81.11567
417.121	-1.05368
417.334	20.02115
417.547	-34.76838
417.759	24.2364
417.972	-30.55439
418.185	7.37596
418.397	-55.83685
418.61	7.37596
418.823	-28.44736
419.035	-38.98228
419.248	-22.12611
419.46	-64.26353
419.673	-7.37567
419.885	-34.76838
420.098	-47.40976
420.311	91.69308
420.523	24.2364
420.736	7.37596
420.948	-15.80464
421.161	3.16109
421.373	60.06984
421.586	28.45175
421.798	-34.76838
422.01	-5.26836
422.223	-11.5902
422.435	34.77495
422.648	-9.48295
422.86	17.91356
423.073	53.7458
423.285	-7.37567
423.497	57.9618
423.71	43.20621
423.922	-36.87534
424.134	-5.26836
424.347	-57.94356
424.559	-20.01897
424.771	7.37596
424.984	-32.6614
425.196	34.77495
425.408	17.91356
425.621	-34.76838
425.833	-68.47672
426.045	26.34407
426.257	24.2364
426.47	9.48343
426.682	20.02115
426.894	28.45175
427.106	62.17789
427.318	45.31408
427.531	74.82672
427.743	66.39408
427.955	49.5299
428.167	-41.08919
428.379	-34.76838
428.591	66.39408
428.804	-5.26836
429.016	-51.62336
429.228	-7.37567
429.44	1.05369
429.652	95.90989
429.864	-7.37567
430.076	-85.32845
430.288	-47.40976
430.5	20.02115
430.712	91.69308
430.924	41.09836
431.136	20.02115
431.348	7.37596
431.56	-13.69743
431.772	36.88273
431.984	15.80599
432.196	34.77495
432.408	-28.44736
432.62	45.31408
432.832	93.80147
433.044	-3.16104
433.256	7.37596
433.468	72.71852
433.679	-7.37567
433.891	-15.80464
434.103	3.16109
434.315	-34.76838
434.527	104.34378
434.739	30.55946
434.95	68.5022
435.162	-5.26836
435.374	15.80599
435.586	30.55946
435.798	66.39408
436.009	62.17789
436.221	36.88273
436.433	32.66719
436.645	-20.01897
436.856	41.09836
437.068	87.47635
437.28	11.59093
437.491	7.37596
437.703	38.99053
437.915	-32.6614
438.126	91.69308
438.338	15.80599
438.55	24.2364
438.761	3.16109
438.973	24.2364
439.184	1.05369
439.396	-30.55439
439.608	83.25972
439.819	51.63784
440.031	62.17789
440.242	9.48343
440.454	83.25972
440.665	5.26851
440.877	30.55946
441.088	-22.12611
441.3	-11.5902
441.511	85.36802
441.723	-53.73012
441.934	55.85379
442.146	11.59093
442.357	32.66719
442.569	17.91356
442.78	-32.6614
442.991	36.88273
443.203	17.91356
443.414	79.04317
443.626	57.9618
443.837	3.16109
444.048	-24.23321
444.26	154.95444
444.471	49.5299
444.682	15.80599
444.894	-7.37567
445.105	-17.91182
445.316	49.5299
445.528	74.82672
445.739	28.45175
445.95	51.63784
446.161	135.97399
446.373	24.2364
446.584	100.12679
446.795	51.63784
447.006	1.05369
447.217	15.80599
447.429	7.37596
447.64	26.34407
447.851	24.2364
448.062	43.20621
448.273	32.66719
448.484	91.69308
448.695	110.66943
448.907	57.9618
449.118	83.25972
449.329	7.37596
449.54	53.7458
449.751	-22.12611
449.962	24.2364
450.173	45.31408
450.384	28.45175
450.595	110.66943
450.806	60.06984
451.017	79.04317
451.228	47.42198
451.439	43.20621
451.65	57.9618
451.861	76.93493
452.072	68.5022
452.283	89.5847
452.494	22.12877
452.705	76.93493
452.915	125.43005
453.126	93.80147
453.337	72.71852
453.548	95.90989
453.759	85.36802
453.97	51.63784
454.181	70.61035
454.391	68.5022
454.602	95.90989
454.813	127.53879
455.024	66.39408
455.235	41.09836
455.445	133.86516
455.656	57.9618
455.867	91.69308
456.078	28.45175
456.288	83.25972
456.499	74.82672
456.71	91.69308
456.921	76.93493
457.131	102.23527
457.342	76.93493
457.553	68.5022
457.763	83.25972
457.974	110.66943
458.184	41.09836
458.395	83.25972
458.606	127.53879
458.816	98.01833
459.027	57.9618
459.237	135.97399
459.448	49.5299
459.659	100.12679
459.869	49.5299
460.08	60.06984
460.29	100.12679
460.501	119.10394
460.711	150.73642
460.922	62.17789
461.132	85.36802
461.343	180.26435
461.553	110.66943
461.764	108.56086
461.974	20.02115
462.184	66.39408
462.395	161.28164
462.605	116.99528
462.816	116.99528
463.026	110.66943
463.236	176.04582
463.447	100.12679
463.657	32.66719
463.867	192.92041
464.078	176.04582
464.288	176.04582
464.498	233.00273
464.709	167.60902
464.919	188.70164
465.129	163.39074
465.339	167.60902
465.55	237.22233
465.76	83.25972
465.97	220.34438
466.18	192.92041
466.391	152.84542
466.601	171.82738
466.811	277.31241
467.021	216.12509
467.231	268.87183
467.441	228.7832
467.651	251.99156
467.862	302.63595
468.072	264.65165
468.282	230.89295
468.492	327.96211
468.702	277.31241
468.912	302.63595
469.122	298.41518
469.332	296.30482
469.542	277.31241
469.752	294.19448
469.962	344.84764
470.172	389.17739
470.382	382.84411
470.592	387.06628
470.802	471.52319
471.012	429.29157
471.222	446.18347
471.432	382.84411
471.642	498.97701
471.852	444.07193
472.062	505.31286
472.272	448.29503
472.482	399.73318
472.691	591.91544
472.901	513.76086
473.111	522.20909
473.321	615.15409
473.531	551.77967
473.741	657.41006
473.95	686.99207
474.16	684.87899
474.37	744.0493
474.58	758.84318
474.79	805.34143
474.999	695.44449
475.209	686.99207
475.419	779.97816
475.628	767.29705
475.838	794.77323
476.048	784.20528
476.258	845.50269
476.467	1092.8727
476.677	1008.29152
476.886	1130.93695
477.096	900.46529
477.306	1031.55043
477.515	1025.20702
477.725	1192.26563
477.935	987.14771
478.144	1128.82223
478.354	1156.31393
478.563	1287.43646
478.773	1190.15079
478.982	1262.05702
479.192	1353.00136
479.401	1369.92157
479.611	1367.80654
479.82	1517.97483
480.03	1462.9836
480.239	1553.93035
480.449	1386.84185
480.658	1646.98964
480.868	1666.02399
481.077	1640.64482
481.287	1562.39042
481.496	1748.5034
481.705	1727.35531
481.915	1989.5599
482.124	1919.78737
482.333	1875.38344
482.543	1936.70251
482.752	1932.47376
482.961	1981.10297
483.171	2152.33418
483.38	2038.18519
483.589	2268.57291
483.799	2188.26527
484.008	2228.42068
484.217	2088.92075
484.426	2471.39387
484.636	2348.8673
484.845	2469.28165
485.054	2403.79736
485.263	2465.05717
485.472	2522.08387
485.682	2625.55515
485.891	2655.11302
486.1	2439.70938
486.309	2627.66651
486.518	2766.98791
486.727	2595.99486
486.936	2788.09221
487.146	2653.00182
487.355	2819.74611
487.564	2859.83655
487.773	2986.40385
487.982	2969.53128
488.191	2988.51285
488.4	3051.77589
488.609	3119.24106
488.818	3144.53631
489.027	3176.1521
489.236	3268.87039
489.445	3237.2655
489.654	3437.36453
489.863	3502.6256
490.072	3287.8315
490.281	3492.1008
490.49	3473.15501
490.698	3504.73051
490.907	3492.1008
491.116	3738.25934
491.325	3588.91169
491.534	3626.78352
491.743	3643.61349
491.952	3868.59585
492.16	3879.10354
492.369	3778.20919
492.578	3677.26979
492.787	4051.35767
492.996	4034.55843
493.204	3992.55459
493.413	3893.81348
493.622	4147.92747
493.831	3963.14703
494.039	4139.53185
494.248	4105.94602
494.457	4324.1571
494.665	4204.58908
494.874	4347.2236
495.083	4271.72355
495.291	4280.11382
495.5	4313.67147
495.709	4275.91873
495.917	4483.47188
496.126	4556.79789
496.335	4311.57428
496.543	4692.90243
496.752	4374.48063
496.96	4630.0967
497.169	4569.36534
497.377	4646.84687
497.586	4575.64876
497.794	4891.65298
498.003	4728.48335
498.211	4998.2656
498.42	4833.0952
498.628	4856.10218
498.837	5075.5745
499.045	4966.91516
499.254	4960.64445
499.462	5063.04007
499.671	4782.88859
499.879	4906.28962
500.087	5002.44527
500.296	5127.79229
500.504	5248.88157
500.713	5190.43446
500.921	5334.43178
501.129	5228.00971
501.338	5090.19694
501.546	5403.26066
501.754	5282.2717
501.962	5357.37758
502.171	5344.86204
502.379	5565.84535
502.587	5255.14268
502.795	5474.14851
503.004	5324.00094
503.212	5655.41409
503.42	5597.09521
503.628	5522.08664
503.837	5517.9186
504.045	5805.29198
504.253	5694.97708
504.461	5740.77622
504.669	5645.00136
504.877	5761.59023
505.085	5592.92887
505.294	6065.20616
505.502	5611.67666
505.71	5915.54058
505.918	5905.1426
506.126	6079.75046
506.334	5846.90301
506.542	6125.45364
506.75	5763.6715
506.958	6083.90577
507.166	6023.64464
507.374	6281.17452
507.582	6009.09588
507.79	6144.14712
507.998	6206.44496
508.206	6133.76209
508.414	6102.60347
508.622	6318.52792
508.83	6200.21613
509.037	6177.37526
509.245	6173.22207
509.453	6389.0637
509.661	6106.75826
509.869	6341.35127
510.077	6154.53156
510.285	6333.0522
510.492	6509.3273
510.7	6418.10001
510.908	6368.32068
511.116	6521.7639
511.324	6208.52119
511.531	6409.80438
511.739	6513.47292
511.947	6747.55083
512.155	6666.79611
512.362	6724.77739
512.57	6515.5457
512.778	6598.43787
512.985	6588.07838
513.193	6615.01187
513.401	6745.48063
513.608	6836.54774
513.816	6683.36402
514.024	6606.72506
514.231	6712.35434
514.439	6917.22946
514.646	6879.99603
514.854	6921.36605
515.061	6691.64743
515.269	7030.95291
515.477	6749.621
515.684	7022.68441
515.892	6846.89348
516.099	7128.08092
516.307	6954.45555
516.514	7204.50876
516.722	7227.2247
516.929	7043.35498
517.136	6985.47171
517.344	7223.09473
517.551	7101.22067
517.759	7262.32589
517.966	7173.52817
518.173	7252.00267
518.381	7291.22797
518.588	7520.22866
518.796	7382.03509
519.003	7466.61283
519.21	7394.4146
519.418	7507.85707
519.625	7295.35648
519.832	7516.10488
520.039	7417.10834
520.247	7604.74719
520.454	7507.85707
520.661	7812.7992
520.868	7493.42257
521.076	7656.26527
521.283	7687.16976
521.49	7732.48774
521.697	7740.72628
521.904	7748.96449
522.112	7701.59022
522.319	7851.9138
522.526	7691.29
522.733	7884.84661
522.94	7693.35008
523.147	7660.38614
523.354	7897.19504
523.561	7876.6139
523.768	8026.80901
523.975	8150.17597
524.183	7678.92903
524.39	8357.68185
524.597	8191.28224
524.804	8277.57961
525.011	8187.17198
525.218	8041.20557
525.425	8018.58196
525.632	8125.50837
525.838	8111.1176
526.045	8259.09025
526.252	8176.89595
526.459	8259.09025
526.666	8181.00642
526.873	8281.68814
527.08	8222.10673
527.287	8556.78313
527.494	8244.70853
527.701	8540.36919
527.907	8433.64897
528.114	8581.40178
528.321	8484.9632
528.528	8536.26552
528.735	8577.29886
528.941	8567.04123
529.148	8482.91086
529.355	8706.50493
529.562	8521.90207
529.768	8786.4529
529.975	8511.64189
530.182	8876.61741
530.388	8794.65112
530.595	8735.20741
530.802	8909.39587
531.008	9071.17314
531.215	8909.39587
531.422	9093.69044
531.628	8960.6031
531.835	9099.83116
532.042	9005.65631
532.248	9224.65902
532.455	9167.36886
532.661	9243.0709
532.868	9193.96951
533.074	9214.4296
533.281	9060.93731
533.487	9304.43403
533.694	9101.87803
533.9	9643.71129
534.107	9294.20788
534.313	9320.795
534.52	9255.34473
534.726	9185.785
534.933	9345.33447
535.139	9361.6928
535.345	9380.09466
535.552	9586.51462
535.758	9766.23477
535.965	9854.00966
536.171	9594.68632
536.377	9798.89843
536.584	9404.62842
536.79	9508.87083
536.996	9639.62622
537.203	9602.85777
537.409	9578.34266
537.615	9896.86646
537.821	9686.60079
538.028	9898.90709
538.234	9772.3595
538.44	9796.85707
538.646	9760.1099
538.853	9843.8047
539.059	9672.30505
539.265	9966.23992
539.471	10007.04
539.677	10135.52298
539.883	9868.29598
540.09	9719.27395
540.296	10031.51729
540.502	10335.27609
540.708	10221.14748
540.914	10398.43645
541.12	10323.05004
541.326	10310.82351
541.532	10137.56195
541.738	10194.64726
541.944	10312.86129
542.15	10455.47371
542.356	10261.91255
542.562	10255.79814
542.768	10113.09348
542.974	10496.20842
543.18	10553.22845
543.386	10724.23002
543.592	10598.02298
543.798	10428.99339
544.004	10569.51807
544.21	10714.05377
544.415	10498.24502
544.621	11206.25492
544.827	10657.06115
545.033	10732.37081
545.239	10683.52319
545.445	10764.93205
545.651	10634.66858
545.856	11000.91183
546.062	10870.73522
546.268	10730.33563
546.474	10836.1492
546.679	10864.63205
546.885	10571.55422
547.091	10791.38582
547.297	10789.35098
547.502	11011.07994
547.708	10644.84721
547.914	10905.31792
548.119	11074.11607
548.325	11063.94966
548.531	10606.1668
548.736	10943.96526
548.942	10864.63205
549.147	10952.10102
549.353	10948.03316
549.559	11228.61247
549.764	11253.00109
549.97	11198.12459
550.175	11257.06572
550.381	11318.0302
550.586	11124.94404
550.792	11326.15811
550.997	11248.93643
551.203	11496.80766
551.408	11240.80697
551.614	11502.90102
551.819	11192.02674
552.025	11476.49583
552.23	11358.66814
552.435	11443.99491
552.641	11590.22992
552.846	11620.68945
553.052	11504.93213
553.257	11425.71206
553.462	11675.51146
553.668	11604.44463
553.873	11667.39009
554.078	11494.77652
554.283	11612.56711
554.489	12067.20471
554.694	11848.05723
554.899	12077.34818
555.105	11770.92686
555.31	12059.08979
555.515	11738.4472
555.72	11866.32316
555.925	11667.39009
556.131	12077.34818
556.336	11833.84993
556.541	11998.22394
556.746	11856.17551
556.951	12134.14807
557.156	11829.79062
557.361	12059.08979
557.567	12042.85959
557.772	12186.88554
557.977	11925.17546
558.182	11988.07894
558.387	12022.57113
558.592	11965.75924
558.797	11817.6125
559.002	12217.30872
559.207	11894.73548
559.412	11756.71728
559.617	12152.40392
559.822	12495.10054
560.027	12085.46281
560.232	12136.17653
560.437	12095.60594
560.642	12598.4803
560.847	12261.92644
561.051	12478.8826
561.256	12278.1502
561.461	12263.95443
561.666	12507.26372
561.871	12253.81439
562.076	12576.18408
562.281	12784.92925
562.485	12359.26225
562.69	12381.56613
562.895	12272.06634
563.1	12097.63454
563.305	12302.48499
563.509	12399.81414
563.714	12399.81414
563.919	12381.56613
564.123	12318.70762
564.328	12444.4181
564.533	12572.13015
564.737	12578.21104
564.942	12693.73763
565.147	12576.18408
565.351	12478.8826
565.556	12472.80077
565.761	12365.34521
565.965	12685.63113
566.17	12444.4181
566.374	12951.07172
566.579	12884.21386
566.784	12940.94211
566.988	12904.47442
567.193	12863.95276
567.397	12795.06094
567.602	13048.30954
567.806	12381.56613
568.011	12928.7864
568.215	13007.79519
568.42	13066.54035
568.624	12718.05654
568.828	12665.36449
569.033	12762.63904
569.237	13238.70147
569.442	12770.74465
569.646	12827.48142
569.85	12863.95276
570.055	13060.46346
570.259	12892.31815
570.463	13137.43427
570.668	13111.10292
570.872	13216.42365
571.076	13131.35788
571.281	13501.94657
571.485	13216.42365
571.689	13074.64281
571.893	13210.34779
572.098	13250.85278
572.302	13103.00081
572.506	13019.9497
572.71	12938.91617
572.914	13234.651
573.119	13212.37308
573.323	13360.2077
573.527	13076.66841
573.731	13457.4021
573.935	13489.79826
574.139	13718.57016
574.343	13459.42689
574.547	13797.51714
