Data from absorb_only_2.23.25_USB4F045381__16__0121.txt Node

Date: Sun Feb 23 19:14:37 EST 2025
User: ssocol
Spectrometer: USB4F04538
Trigger mode: 4
Integration Time (sec): 2.600000E-3
Scans to average: 1
Electric dark correction enabled: true
Nonlinearity correction enabled: true
Boxcar width: 0
XAxis mode: Wavelengths
Number of Pixels in Spectrum: 3648
>>>>>Begin Spectral Data<<<<<
345.52	-2.80981
345.736	-2.80981
345.952	-2.80981
346.168	28.80304
346.384	79.39455
346.6	11.94218
346.816	28.80304
347.032	24.58768
347.248	-51.27223
347.464	-15.45344
347.68	3.51233
347.896	20.37242
348.112	20.37242
348.328	45.6654
348.544	-4.91714
348.76	-47.05863
348.975	-36.52418
349.191	-36.52418
349.407	30.91075
349.623	-7.02445
349.839	9.83468
350.055	7.72721
350.27	-9.13173
350.486	3.51233
350.702	-11.23899
350.918	66.74543
351.133	49.88122
351.349	-59.69913
351.565	49.88122
351.781	-4.91714
351.996	-19.66778
352.212	39.34183
352.428	35.12624
352.644	-42.84492
352.859	3.51233
353.075	28.80304
353.291	24.58768
353.506	-11.23899
353.722	39.34183
353.938	20.37242
354.153	14.04971
354.369	-13.34623
354.584	3.51233
354.8	-72.33872
355.016	14.04971
355.231	-32.31023
355.447	26.69535
355.662	-47.05863
355.878	41.44967
356.093	68.85356
356.309	11.94218
356.524	-17.56062
356.74	20.37242
356.955	-9.13173
357.171	104.6952
357.386	-21.77492
357.602	58.31314
357.817	-25.98912
358.033	85.71941
358.248	-30.20322
358.464	68.85356
358.679	49.88122
358.895	-17.56062
359.11	28.80304
359.325	54.09713
359.541	54.09713
359.756	-7.02445
359.972	73.06989
360.187	-4.91714
360.402	45.6654
360.618	-25.98912
360.833	-23.88203
361.048	-15.45344
361.264	33.01848
361.479	20.37242
361.694	-4.91714
361.909	28.80304
362.125	-28.09618
362.34	45.6654
362.555	5.61975
362.77	28.80304
362.986	47.77329
363.201	-25.98912
363.416	7.72721
363.631	11.94218
363.847	96.26129
364.062	-32.31023
364.277	-78.65817
364.492	62.52924
364.707	14.04971
364.922	-72.33872
365.138	54.09713
365.353	5.61975
365.568	54.09713
365.783	5.61975
365.998	24.58768
366.213	20.37242
366.428	20.37242
366.643	11.94218
366.858	22.48004
367.073	9.83468
367.288	62.52924
367.503	-11.23899
367.718	-38.63112
367.933	73.06989
368.148	-0.70246
368.363	-13.34623
368.578	115.23808
368.793	45.6654
369.008	-44.95179
369.223	-13.34623
369.438	5.61975
369.653	16.15725
369.868	3.51233
370.083	-51.27223
370.298	51.98916
370.513	39.34183
370.728	106.80373
370.943	41.44967
371.157	20.37242
371.372	11.94218
371.587	70.96171
371.802	41.44967
372.017	28.80304
372.232	39.34183
372.446	56.20513
372.661	43.55752
372.876	5.61975
373.091	9.83468
373.306	123.67278
373.52	-70.23219
373.735	-21.77492
373.95	3.51233
374.165	39.34183
374.379	-0.70246
374.594	11.94218
374.809	60.42118
375.023	45.6654
375.238	54.09713
375.453	24.58768
375.667	54.09713
375.882	37.23403
376.097	87.82774
376.311	-4.91714
376.526	-11.23899
376.741	37.23403
376.955	26.69535
377.17	-21.77492
377.384	75.17808
377.599	5.61975
377.813	37.23403
378.028	-9.13173
378.242	-25.98912
378.457	-4.91714
378.672	9.83468
378.886	11.94218
379.101	9.83468
379.315	28.80304
379.53	5.61975
379.744	-11.23899
379.958	-9.13173
380.173	16.15725
380.387	30.91075
380.602	45.6654
380.816	-11.23899
381.031	18.26482
381.245	-2.80981
381.459	-13.34623
381.674	-17.56062
381.888	49.88122
382.103	54.09713
382.317	45.6654
382.531	83.6111
382.746	-4.91714
382.96	100.4782
383.174	39.34183
383.388	-11.23899
383.603	79.39455
383.817	-47.05863
384.031	47.77329
384.246	75.17808
384.46	-95.5089
384.674	115.23808
384.888	-21.77492
385.103	-17.56062
385.317	-30.20322
385.531	-2.80981
385.745	9.83468
385.959	-47.05863
386.174	-0.70246
386.388	-4.91714
386.602	20.37242
386.816	-13.34623
387.03	-49.16544
387.244	-2.80981
387.458	-0.70246
387.672	3.51233
387.887	5.61975
388.101	54.09713
388.315	-103.93364
388.529	37.23403
388.743	47.77329
388.957	22.48004
389.171	-17.56062
389.385	66.74543
389.599	-4.91714
389.813	125.7815
390.027	-21.77492
390.241	-0.70246
390.455	56.20513
390.669	-4.91714
390.883	113.12946
391.097	54.09713
391.311	30.91075
391.525	30.91075
391.738	-87.08375
391.952	3.51233
392.166	3.51233
392.38	89.9361
392.594	7.72721
392.808	20.37242
393.022	70.96171
393.236	66.74543
393.449	37.23403
393.663	-38.63112
393.877	100.4782
394.091	7.72721
394.305	11.94218
394.518	33.01848
394.732	-30.20322
394.946	5.61975
395.16	14.04971
395.373	16.15725
395.587	28.80304
395.801	5.61975
396.015	37.23403
396.228	18.26482
396.442	-17.56062
396.656	28.80304
396.869	68.85356
397.083	33.01848
397.297	39.34183
397.51	11.94218
397.724	-11.23899
397.938	-0.70246
398.151	-32.31023
398.365	-4.91714
398.578	28.80304
398.792	-28.09618
399.005	33.01848
399.219	-4.91714
399.433	-2.80981
399.646	5.61975
399.86	-9.13173
400.073	24.58768
400.287	-4.91714
400.5	3.51233
400.714	20.37242
400.927	-28.09618
401.141	3.51233
401.354	66.74543
401.567	123.67278
401.781	54.09713
401.994	7.72721
402.208	62.52924
402.421	22.48004
402.635	62.52924
402.848	22.48004
403.061	20.37242
403.275	39.34183
403.488	-11.23899
403.701	43.55752
403.915	87.82774
404.128	5.61975
404.341	64.63732
404.555	-28.09618
404.768	1.40492
404.981	9.83468
405.195	81.50281
405.408	54.09713
405.621	-63.91243
405.834	43.55752
406.048	37.23403
406.261	30.91075
406.474	-19.66778
406.687	16.15725
406.9	62.52924
407.114	5.61975
407.327	-2.80981
407.54	56.20513
407.753	-28.09618
407.966	16.15725
408.179	28.80304
408.392	-0.70246
408.605	39.34183
408.819	62.52924
409.032	-80.7646
409.245	-13.34623
409.458	7.72721
409.671	58.31314
409.884	22.48004
410.097	56.20513
410.31	7.72721
410.523	7.72721
410.736	-13.34623
410.949	5.61975
411.162	20.37242
411.375	20.37242
411.588	58.31314
411.801	45.6654
412.014	58.31314
412.227	-0.70246
412.44	-0.70246
412.653	-30.20322
412.865	70.96171
413.078	37.23403
413.291	39.34183
413.504	113.12946
413.717	41.44967
413.93	-70.23219
414.143	75.17808
414.356	66.74543
414.568	9.83468
414.781	-9.13173
414.994	51.98916
415.207	-36.52418
415.42	100.4782
415.632	-17.56062
415.845	98.36974
416.058	11.94218
416.271	58.31314
416.483	45.6654
416.696	51.98916
416.909	81.50281
417.121	-0.70246
417.334	16.15725
417.547	39.34183
417.759	24.58768
417.972	49.88122
418.185	117.34672
418.397	16.15725
418.61	45.6654
418.823	30.91075
419.035	37.23403
419.248	62.52924
419.46	24.58768
419.673	45.6654
419.885	5.61975
420.098	83.6111
420.311	28.80304
420.523	14.04971
420.736	54.09713
420.948	98.36974
421.161	70.96171
421.373	45.6654
421.586	45.6654
421.798	43.55752
422.01	45.6654
422.223	28.80304
422.435	89.9361
422.648	60.42118
422.86	37.23403
423.073	73.06989
423.285	108.91229
423.497	108.91229
423.71	66.74543
423.922	98.36974
424.134	62.52924
424.347	39.34183
424.559	-21.77492
424.771	111.02086
424.984	45.6654
425.196	94.15287
425.408	83.6111
425.621	87.82774
425.833	66.74543
426.045	83.6111
426.257	60.42118
426.47	79.39455
426.682	108.91229
426.894	89.9361
427.106	108.91229
427.318	60.42118
427.531	58.31314
427.743	73.06989
427.955	83.6111
428.167	79.39455
428.379	125.7815
428.591	33.01848
428.804	73.06989
429.016	104.6952
429.228	47.77329
429.44	132.10782
429.652	125.7815
429.864	-21.77492
430.076	151.08791
430.288	3.51233
430.5	108.91229
430.712	140.5432
430.924	96.26129
431.136	79.39455
431.348	75.17808
431.56	121.56407
431.772	96.26129
431.984	87.82774
432.196	94.15287
432.408	35.12624
432.62	66.74543
432.832	83.6111
433.044	24.58768
433.256	79.39455
433.468	167.96055
433.679	102.58669
433.891	159.52406
434.103	62.52924
434.315	123.67278
434.527	96.26129
434.739	121.56407
434.95	115.23808
435.162	199.6003
435.374	77.2863
435.586	66.74543
435.798	54.09713
436.009	157.41499
436.221	148.97893
436.433	119.45538
436.645	70.96171
436.856	155.30595
437.068	155.30595
437.28	113.12946
437.491	79.39455
437.703	142.6521
437.915	140.5432
438.126	180.61589
438.338	83.6111
438.55	163.74226
438.761	83.6111
438.973	115.23808
439.184	134.21663
439.396	210.14789
439.608	174.28813
439.819	115.23808
440.031	182.72519
440.242	214.36707
440.454	218.58633
440.665	136.32547
440.877	146.86997
441.088	172.17891
441.3	148.97893
441.511	172.17891
441.723	197.49084
441.934	205.9288
442.146	121.56407
442.357	155.30595
442.569	157.41499
442.78	201.70978
442.991	174.28813
443.203	182.72519
443.414	214.36707
443.626	176.39736
443.837	119.45538
444.048	189.0532
444.26	222.80567
444.471	157.41499
444.682	172.17891
444.894	159.52406
445.105	220.69599
445.316	146.86997
445.528	214.36707
445.739	176.39736
445.95	233.35436
446.161	294.5462
446.373	281.88452
446.584	174.28813
446.795	182.72519
447.006	197.49084
447.217	197.49084
447.429	214.36707
447.64	235.46415
447.851	265.00332
448.062	129.99903
448.273	258.67319
448.484	248.12334
448.695	243.90353
448.907	193.27198
449.118	235.46415
449.329	205.9288
449.54	355.75346
449.751	148.97893
449.962	241.79366
450.173	208.03833
450.384	383.19595
450.595	277.66411
450.806	302.98769
451.017	222.80567
451.228	376.86282
451.439	334.64583
451.65	252.34322
451.861	275.55393
452.072	305.0981
452.283	357.86432
452.494	357.86432
452.705	296.65654
452.915	305.0981
453.126	387.41813
453.337	338.86722
453.548	345.19943
453.759	393.75151
453.97	334.64583
454.181	298.76691
454.391	414.86386
454.602	425.42065
454.813	343.08867
455.024	374.75181
455.235	400.08505
455.445	412.75256
455.656	435.97783
455.867	459.205
456.078	353.64262
456.288	343.08867
456.499	425.42065
456.71	478.21043
456.921	450.75854
457.131	435.97783
457.342	446.5354
457.553	459.205
457.763	465.54001
457.974	505.66485
458.184	480.32222
458.395	636.6336
458.606	484.54585
458.816	596.49263
459.027	681.00505
459.237	681.00505
459.448	611.28088
459.659	554.24401
459.869	613.39353
460.08	560.58096
460.29	805.69371
460.501	754.96854
460.711	636.6336
460.922	771.8763
461.132	803.58005
461.343	731.72145
461.553	708.47565
461.764	841.62734
461.974	670.43995
462.184	757.08198
462.395	754.96854
462.605	962.12838
462.816	866.9938
463.026	902.93169
463.236	856.42429
463.447	949.44289
463.657	940.98604
463.867	1061.50614
464.078	1000.18632
464.288	1103.79839
464.498	1057.27703
464.709	1095.33978
464.919	1133.40413
465.129	1158.78116
465.339	1160.89594
465.55	1186.2736
465.76	1069.96443
465.97	1203.19234
466.18	1135.51886
466.391	1406.22974
466.601	1245.49009
466.811	1410.45983
467.021	1249.71993
467.231	1541.59271
467.441	1247.60501
467.651	1490.83176
467.862	1621.96271
468.072	1695.98501
468.282	1657.91679
468.492	1588.123
468.702	1763.65931
468.912	1956.08399
469.122	1772.11834
469.332	1879.9649
469.542	1748.85587
469.752	2125.20818
469.962	2027.96713
470.172	1915.91093
470.382	1983.56959
470.592	2049.10778
470.802	2095.61472
471.012	2192.84455
471.222	2091.38696
471.432	2201.29851
471.642	2252.01931
471.852	2473.85812
472.062	2262.5855
472.272	2467.52145
472.482	2615.35008
472.691	2689.24224
472.901	2535.10732
473.111	2547.77837
473.321	2735.68072
473.531	3024.71506
473.741	2826.4282
473.95	3045.80164
474.16	2826.4282
474.37	3060.56133
474.58	3071.1035
474.79	3357.69472
474.999	3079.53695
475.209	3448.24258
475.419	3361.90697
475.628	3618.71874
475.838	3444.03178
476.048	3530.33874
476.258	3652.37862
476.467	3770.1497
476.677	3963.49714
476.886	4039.10836
477.096	3988.70383
477.306	4005.50665
477.515	3906.77142
477.725	4190.25025
477.935	4064.30617
478.144	4513.15472
478.354	4139.88167
478.563	4343.37936
478.773	4412.56442
478.982	4797.88222
479.192	4496.39319
479.401	4689.06488
479.611	4714.182
479.82	4860.63353
480.03	4885.7283
480.239	5078.01165
480.449	4921.27359
480.658	5320.17615
480.868	5299.31227
481.077	5464.07297
481.287	5389.01031
481.496	5382.75372
481.705	5632.85243
481.915	5553.69119
482.124	5449.47984
482.333	5736.96006
482.543	5589.10964
482.752	5830.60648
482.961	6069.70809
483.171	6078.01906
483.38	6005.2853
483.589	6169.4149
483.799	6190.18034
484.008	6426.74088
484.217	6376.96389
484.426	6418.44565
484.636	6281.52042
484.845	6654.7144
485.054	6580.1357
485.263	6934.11998
485.472	6578.06365
485.682	6913.4375
485.891	7012.69282
486.1	6896.88989
486.309	7087.1003
486.518	7107.7639
486.727	7281.25035
486.936	7130.49128
487.146	7400.94791
487.355	7481.39301
487.564	7462.83168
487.773	7530.88135
487.982	7448.39388
488.191	7712.23324
488.4	7551.49784
488.609	7611.27355
488.818	7897.53805
489.027	8092.95642
489.236	7854.31533
489.445	8206.01006
489.654	8020.98155
489.863	8292.30148
490.072	8308.73401
490.281	8614.56428
490.49	8343.64898
490.698	8468.88603
490.907	8366.23803
491.116	8616.61541
491.325	8645.32925
491.534	8555.0734
491.743	8678.1406
491.952	9036.71079
492.16	8616.61541
492.369	9001.9022
492.578	8979.37631
492.787	9003.94991
492.996	8958.89637
493.204	9548.03613
493.413	9384.52454
493.622	9570.51097
493.831	9315.00061
494.039	9627.71107
494.248	9415.19084
494.457	9652.22165
494.665	9539.86298
494.874	9595.0268
495.083	9799.23866
495.291	9605.24107
495.5	9621.58307
495.709	10180.71672
495.917	9925.77412
496.126	10107.31591
496.335	10203.14117
496.543	10237.79387
496.752	10011.45967
496.96	10243.90865
497.169	10300.97401
497.377	10144.01857
497.586	10415.07337
497.794	10445.62872
498.003	10571.89357
498.211	10828.34993
498.42	10449.70254
498.628	10439.51788
498.837	10618.72145
499.045	10781.55067
499.254	10964.6433
499.462	11098.85319
499.671	10940.23631
499.879	10932.10028
500.087	10917.8618
500.296	11192.36551
500.504	11013.45245
500.713	11180.16952
500.921	11330.56066
501.129	11102.91941
501.338	11070.38841
501.546	11395.57748
501.754	11289.91994
501.962	11663.66775
502.171	11296.01631
502.379	11578.38399
502.587	11080.55465
502.795	11815.92107
503.004	11249.27515
503.212	11651.48534
503.42	11771.26518
503.628	11781.41461
503.837	11651.48534
504.045	11874.77938
504.253	11852.45465
504.461	12069.57153
504.669	11882.89721
504.877	12211.56225
505.085	12049.2841
505.294	12485.30225
505.502	11984.35906
505.71	12211.56225
505.918	12170.99721
506.126	12353.51718
506.334	12254.15239
506.542	12647.46179
506.75	12438.67383
506.958	12531.92724
507.166	12596.79122
507.374	12572.46798
507.582	12718.39429
507.79	12550.17088
507.998	12521.79166
508.206	12775.13515
508.414	12819.71414
508.622	12777.16153
508.83	12833.8978
509.037	13164.1024
509.245	12566.38703
509.453	13141.82275
509.661	12886.57762
509.869	13287.64331
510.077	13095.23621
510.285	13234.98854
510.492	13149.92451
510.7	13522.5309
510.908	13172.20395
511.116	13018.26158
511.324	13200.55881
511.531	13208.66004
511.739	13198.5335
511.947	13421.29274
512.155	13257.26591
512.362	13451.66518
512.57	13366.62011
512.778	13281.56791
512.985	13237.01377
513.193	13988.11903
513.401	13516.45688
513.608	13836.3142
513.816	13597.44125
514.024	13892.98977
514.231	14063.00411
514.439	14063.00411
514.646	14079.19505
514.854	13791.78183
515.061	13340.29521
515.269	13759.39375
515.477	14127.76702
515.684	14228.95468
515.892	14008.35856
516.099	14012.40644
516.307	14253.23898
516.514	14595.21769
516.722	14407.03357
516.929	14334.18473
517.136	14239.07318
517.344	14326.09028
517.551	14235.02579
517.759	14346.32635
517.966	14615.4519
518.173	14710.55128
518.381	14763.15858
518.588	14722.69148
518.796	14655.91999
519.003	14842.06855
519.21	14827.9053
519.418	14712.57465
519.625	14718.64475
519.832	15050.46789
520.039	14987.74619
520.247	14965.49004
520.454	14914.90768
520.661	15428.82097
520.868	15238.63218
521.076	15797.07335
521.283	15143.53844
521.49	15165.79442
521.697	15064.63082
521.904	15517.84677
522.112	15139.4919
522.319	15523.91676
522.526	15151.63152
522.733	15598.78038
522.94	15637.22426
523.147	15693.87896
523.354	15277.0744
523.561	15612.94388
523.768	15471.31042
523.975	16110.72255
524.183	15639.24763
524.39	15833.49556
524.597	15924.55275
524.804	16122.8645
525.011	16037.87205
525.218	15960.97634
525.425	16068.22619
525.632	16169.40915
525.838	16171.43285
526.045	16126.91182
526.252	16215.95468
526.459	16602.52323
526.666	16078.34431
526.873	16390.00282
527.08	16547.8729
527.287	16373.81172
527.494	16385.95504
527.701	16825.19004
527.907	16254.40602
528.114	16557.99321
528.321	16606.57147
528.528	16960.82894
528.735	16865.67806
528.941	17025.61585
529.148	16703.73188
529.355	17213.91882
529.562	16632.88522
529.768	16997.27124
529.975	16541.80074
530.182	16861.62921
530.388	16873.77578
530.595	17009.41886
530.802	16881.87355
531.008	17234.16791
531.215	17578.44889
531.422	17337.44291
531.628	17045.86232
531.835	17248.34246
532.042	17507.56015
532.248	17912.6932
532.455	17645.29047
532.661	17450.85197
532.868	17862.04418
533.074	17882.30353
533.281	17675.67419
533.487	17655.4183
533.694	17442.751
533.9	18024.12877
534.107	17643.26492
534.313	18153.81285
534.52	17930.92738
534.726	17965.3705
534.933	17825.57822
535.139	18013.99782
535.345	17981.57938
535.552	18194.34218
535.758	18455.79207
535.965	18532.82033
536.171	18474.03511
536.377	18786.24235
536.584	18261.21879
536.79	18435.52239
536.996	18508.49502
537.203	18512.5492
537.409	18285.53855
537.615	18814.62945
537.821	18690.94849
538.028	18869.37819
538.234	18605.79962
538.44	18812.60177
538.646	18561.20057
538.853	18573.36376
539.059	18735.55304
539.265	18816.65713
539.471	19084.34602
539.677	18727.44298
539.883	18972.80045
540.09	18678.78394
540.296	18741.63563
540.502	19009.30493
540.708	19153.30762
540.914	19358.19205
541.12	19216.18848
541.326	19534.71047
541.532	19319.64623
541.738	19382.53755
541.944	19467.7515
542.15	19839.12671
542.356	19668.64201
542.562	19971.06972
542.768	19467.7515
542.974	19759.96942
543.18	19311.53151
543.386	19735.61461
543.592	19952.79963
543.798	19912.20065
544.004	20009.64104
544.21	20017.76151
544.415	20293.89752
544.621	20316.23545
544.827	20078.66718
545.033	20464.49095
545.239	20131.45515
545.445	20509.17506
545.651	20561.98617
545.856	20332.48154
546.062	20399.49949
546.268	20360.91284
546.474	20019.79163
546.679	19875.663
546.885	20389.34496
547.091	19944.6797
547.297	20056.33466
547.502	20330.45077
547.708	20419.80886
547.914	20754.97382
548.119	20645.27097
548.325	20072.57644
548.531	20413.716
548.736	20752.94217
548.942	20381.22141
549.147	20042.12332
549.353	20570.11121
549.559	20842.33844
549.764	20862.65689
549.97	20647.30239
550.175	20797.6393
550.381	21260.98139
550.586	20793.57585
550.792	20846.4021
550.997	20830.14757
551.203	21080.0901
551.408	21578.1262
551.614	21179.67795
551.819	21332.1272
552.025	21919.774
552.23	21645.22691
552.435	21409.3768
552.641	21555.76025
552.846	21439.87165
553.052	21872.99434
553.257	21657.42749
553.462	21569.99307
553.668	21592.35933
553.873	21759.10453
554.078	21600.49263
554.283	21545.59407
554.489	21757.0709
554.694	21881.12978
554.899	21767.23912
555.105	21866.89279
555.31	22253.39143
555.515	21602.52596
555.72	22161.84003
555.925	21950.28357
556.131	22418.20274
556.336	22047.91994
556.541	22338.84615
556.746	22259.49513
556.951	22322.56857
557.156	22338.84615
557.361	22428.37706
557.567	22597.2839
557.772	22285.94485
557.977	22387.68032
558.182	22342.91559
558.387	22314.42986
558.592	22530.12522
558.797	22385.64552
559.002	22479.25002
559.207	22397.85437
559.412	22591.1784
559.617	22393.78474
559.822	22782.4989
560.027	22945.34891
560.232	22802.85395
560.437	22817.1027
560.642	22888.34892
560.847	22910.74146
561.051	23317.94861
561.256	22847.63628
561.461	23224.27938
561.666	22847.63628
561.871	22794.71189
562.076	22892.42026
562.281	23159.12221
562.485	22800.81843
562.69	22733.64818
562.895	22731.61278
563.1	23069.53657
563.305	22631.8823
563.509	22815.06715
563.714	22859.84993
563.919	23199.84506
564.123	22957.56353
564.328	23358.67647
564.533	23167.26668
564.737	23079.71643
564.942	23641.76957
565.147	23267.04058
565.351	23537.89396
565.556	23338.31238
565.761	23389.22319
565.965	23544.00407
566.17	23472.72117
566.374	23619.36436
566.579	23511.41713
566.784	23497.1606
566.988	23592.88594
567.193	23456.42847
567.397	23535.85726
567.602	23647.88014
567.806	23558.2611
568.011	23621.40118
568.215	23770.0973
568.42	23910.66013
568.624	23456.42847
568.828	23574.55503
569.033	23558.2611
569.237	24077.72356
569.442	24289.6357
569.646	23753.80106
569.85	24214.24051
570.055	23937.14453
570.259	24100.13594
570.463	23823.06138
570.668	23935.10725
570.872	23708.98738
571.076	24073.64862
