Data from absorb_only_2.23.25_USB4F045381__27__0132.txt Node

Date: Sun Feb 23 19:16:59 EST 2025
User: ssocol
Spectrometer: USB4F04538
Trigger mode: 4
Integration Time (sec): 2.600000E-3
Scans to average: 1
Electric dark correction enabled: true
Nonlinearity correction enabled: true
Boxcar width: 0
XAxis mode: Wavelengths
Number of Pixels in Spectrum: 3648
>>>>>Begin Spectral Data<<<<<
345.52	13.87408
345.736	13.87408
345.952	13.87408
346.168	22.3044
346.384	-5.09275
346.6	-40.91361
346.816	-61.98135
347.032	-7.20006
347.248	-40.91361
347.464	1.22931
347.68	18.08919
347.896	1.22931
348.112	34.9506
348.328	34.9506
348.544	70.78603
348.76	39.16618
348.975	-49.34101
349.191	-61.98135
349.407	24.41204
349.623	-9.30734
349.839	53.92147
350.055	-21.95051
350.27	-21.95051
350.486	-36.69976
350.702	41.27401
350.918	-99.89684
351.133	20.19678
351.349	9.65906
351.565	-30.3788
351.781	9.65906
351.996	-7.20006
352.212	-83.04654
352.428	-66.19459
352.644	39.16618
352.859	-24.05762
353.075	-83.04654
353.291	13.87408
353.506	-40.91361
353.722	-15.62904
353.938	-7.20006
354.153	-36.69976
354.369	43.38186
354.584	-11.4146
354.8	1.22931
355.016	13.87408
355.231	-24.05762
355.447	-30.3788
355.662	-17.73622
355.878	43.38186
356.093	-57.768
356.309	-24.05762
356.524	-5.09275
356.74	-40.91361
356.955	18.08919
357.171	13.87408
357.386	53.92147
357.602	26.51971
357.817	13.87408
358.033	13.87408
358.248	-0.87807
358.464	43.38186
358.679	-15.62904
358.895	64.46165
359.11	93.97717
359.325	1.22931
359.541	-28.27177
359.756	34.9506
359.972	-49.34101
360.187	-2.98542
360.402	-7.20006
360.618	45.48974
360.833	1.22931
361.048	51.8135
361.264	-19.84338
361.479	-68.30117
361.694	5.44413
361.909	18.08919
362.125	9.65906
362.34	-93.57817
362.555	22.3044
362.77	24.41204
362.986	-32.48582
363.201	22.3044
363.416	1.22931
363.631	26.51971
363.847	32.84284
364.062	-19.84338
364.277	-47.2342
364.492	26.51971
364.707	-34.5928
364.922	-28.27177
365.138	-24.05762
365.353	5.44413
365.568	51.8135
365.783	-61.98135
365.998	-19.84338
366.213	9.65906
366.428	30.7351
366.643	-53.55456
366.858	-26.16471
367.073	-53.55456
367.288	-15.62904
367.503	28.62739
367.718	28.62739
367.933	49.70556
368.148	112.95374
368.363	-13.52183
368.578	45.48974
368.793	-49.34101
369.008	-11.4146
369.223	68.67788
369.438	-57.768
369.653	-7.20006
369.868	11.76656
370.083	9.65906
370.298	-7.20006
370.513	13.87408
370.728	-45.12736
370.943	34.9506
371.157	34.9506
371.372	34.9506
371.587	-83.04654
371.802	60.24551
372.017	-78.83371
372.232	18.08919
372.446	3.33671
372.661	49.70556
372.876	9.65906
373.091	26.51971
373.306	72.8942
373.52	-40.91361
373.735	-59.87469
373.95	1.22931
374.165	5.44413
374.379	81.32712
374.594	-24.05762
374.809	9.65906
375.023	43.38186
375.238	-32.48582
375.453	-5.09275
375.667	9.65906
375.882	43.38186
376.097	20.19678
376.311	9.65906
376.526	51.8135
376.741	-7.20006
376.955	30.7351
377.17	1.22931
377.384	-24.05762
377.599	56.02946
377.813	20.19678
378.028	56.02946
378.242	51.8135
378.457	-78.83371
378.672	3.33671
378.886	9.65906
379.101	68.67788
379.315	-24.05762
379.53	30.7351
379.744	-0.87807
379.958	43.38186
380.173	-57.768
380.387	-36.69976
380.602	1.22931
380.816	15.98162
381.031	-66.19459
381.245	68.67788
381.459	13.87408
381.674	-49.34101
381.888	32.84284
382.103	-28.27177
382.317	-7.20006
382.531	-15.62904
382.746	-47.2342
382.96	-11.4146
383.174	-36.69976
383.388	-43.0205
383.603	53.92147
383.817	49.70556
384.031	-5.09275
384.246	-7.20006
384.46	18.08919
384.674	-51.44779
384.888	70.78603
385.103	18.08919
385.317	45.48974
385.531	-21.95051
385.745	-15.62904
385.959	62.35357
386.174	77.11062
386.388	-26.16471
386.602	43.38186
386.816	-17.73622
387.03	47.59764
387.244	-36.69976
387.458	-2.98542
387.672	-21.95051
387.887	-32.48582
388.101	-40.91361
388.315	-21.95051
388.529	22.3044
388.743	47.59764
388.957	26.51971
389.171	56.02946
389.385	-2.98542
389.599	-74.62077
389.813	-83.04654
390.027	-11.4146
390.241	70.78603
390.455	34.9506
390.669	-5.09275
390.883	18.08919
391.097	28.62739
391.311	-30.3788
391.525	-7.20006
391.738	1.22931
391.952	1.22931
392.166	-13.52183
392.38	-129.38082
392.594	-15.62904
392.808	18.08919
393.022	-32.48582
393.236	-32.48582
393.449	-21.95051
393.663	-57.768
393.877	26.51971
394.091	-32.48582
394.305	13.87408
394.518	-15.62904
394.732	53.92147
394.946	81.32712
395.16	60.24551
395.373	34.9506
395.587	15.98162
395.801	89.7604
396.015	-70.40773
396.228	-49.34101
396.442	26.51971
396.656	24.41204
396.869	41.27401
397.083	-38.8067
397.297	39.16618
397.51	5.44413
397.724	-32.48582
397.938	28.62739
398.151	-55.66129
398.365	43.38186
398.578	13.87408
398.792	45.48974
399.005	-85.15292
399.219	-15.62904
399.433	1.22931
399.646	-30.3788
399.86	26.51971
400.073	-7.20006
400.287	15.98162
400.5	43.38186
400.714	-15.62904
400.927	3.33671
401.141	-53.55456
401.354	-19.84338
401.567	-57.768
401.781	18.08919
401.994	37.05838
402.208	53.92147
402.421	-53.55456
402.635	-15.62904
402.848	-53.55456
403.061	45.48974
403.275	26.51971
403.488	51.8135
403.701	-13.52183
403.915	66.56975
404.128	-53.55456
404.341	26.51971
404.555	-26.16471
404.768	47.59764
404.981	5.44413
405.195	-26.16471
405.408	11.76656
405.621	-7.20006
405.834	22.3044
406.048	51.8135
406.261	-21.95051
406.474	20.19678
406.687	-36.69976
406.9	39.16618
407.114	47.59764
407.327	11.76656
407.54	43.38186
407.753	41.27401
407.966	9.65906
408.179	18.08919
408.392	85.54372
408.605	30.7351
408.819	34.9506
409.032	-21.95051
409.245	-7.20006
409.458	64.46165
409.671	-13.52183
409.884	22.3044
410.097	22.3044
410.31	26.51971
410.523	47.59764
410.736	41.27401
410.949	-26.16471
411.162	-7.20006
411.375	1.22931
411.588	-15.62904
411.801	30.7351
412.014	11.76656
412.227	5.44413
412.44	-66.19459
412.653	9.65906
412.865	56.02946
413.078	22.3044
413.291	47.59764
413.504	28.62739
413.717	-43.0205
413.93	-5.09275
414.143	-9.30734
414.356	13.87408
414.568	37.05838
414.781	64.46165
414.994	37.05838
415.207	-7.20006
415.42	72.8942
415.632	9.65906
415.845	-7.20006
416.058	18.08919
416.271	13.87408
416.483	37.05838
416.696	1.22931
416.909	-13.52183
417.121	85.54372
417.334	58.13747
417.547	49.70556
417.759	34.9506
417.972	26.51971
418.185	1.22931
418.397	-30.3788
418.61	5.44413
418.823	9.65906
419.035	-11.4146
419.248	-2.98542
419.46	51.8135
419.673	9.65906
419.885	85.54372
420.098	26.51971
420.311	-13.52183
420.523	75.0024
420.736	89.7604
420.948	3.33671
421.161	-5.09275
421.373	34.9506
421.586	56.02946
421.798	30.7351
422.01	-5.09275
422.223	37.05838
422.435	-7.20006
422.648	56.02946
422.86	3.33671
423.073	64.46165
423.285	58.13747
423.497	64.46165
423.71	91.86877
423.922	58.13747
424.134	-28.27177
424.347	18.08919
424.559	-28.27177
424.771	26.51971
424.984	-57.768
425.196	-5.09275
425.408	-38.8067
425.621	5.44413
425.833	-24.05762
426.045	62.35357
426.257	20.19678
426.47	-38.8067
426.682	7.55158
426.894	30.7351
427.106	91.86877
427.318	26.51971
427.531	24.41204
427.743	89.7604
427.955	93.97717
428.167	-5.09275
428.379	60.24551
428.591	62.35357
428.804	79.21886
429.016	-40.91361
429.228	39.16618
429.44	1.22931
429.652	24.41204
429.864	43.38186
430.076	-11.4146
430.288	26.51971
430.5	-28.27177
430.712	129.82329
430.924	-19.84338
431.136	45.48974
431.348	60.24551
431.56	77.11062
431.772	32.84284
431.984	51.8135
432.196	26.51971
432.408	-24.05762
432.62	-5.09275
432.832	-5.09275
433.044	68.67788
433.256	51.8135
433.468	1.22931
433.679	66.56975
433.891	45.48974
434.103	-13.52183
434.315	-15.62904
434.527	13.87408
434.739	81.32712
434.95	43.38186
435.162	47.59764
435.374	77.11062
435.586	39.16618
435.798	11.76656
436.009	-17.73622
436.221	22.3044
436.433	18.08919
436.645	51.8135
436.856	85.54372
437.068	96.08559
437.28	-15.62904
437.491	51.8135
437.703	87.65205
437.915	-15.62904
438.126	106.62802
438.338	64.46165
438.55	22.3044
438.761	32.84284
438.973	62.35357
439.184	53.92147
439.396	93.97717
439.608	53.92147
439.819	30.7351
440.031	5.44413
440.242	81.32712
440.454	68.67788
440.665	77.11062
440.877	20.19678
441.088	26.51971
441.3	41.27401
441.511	77.11062
441.723	102.41098
441.934	64.46165
442.146	64.46165
442.357	62.35357
442.569	56.02946
442.78	-7.20006
442.991	37.05838
443.203	100.3025
443.414	64.46165
443.626	77.11062
443.837	83.43541
444.048	153.02117
444.26	3.33671
444.471	13.87408
444.682	115.06236
444.894	-15.62904
445.105	144.58528
445.316	81.32712
445.528	34.9506
445.739	72.8942
445.95	85.54372
446.161	51.8135
446.373	169.89395
446.584	37.05838
446.795	24.41204
447.006	112.95374
447.217	20.19678
447.429	93.97717
447.64	64.46165
447.851	68.67788
448.062	28.62739
448.273	18.08919
448.484	70.78603
448.695	64.46165
448.907	56.02946
449.118	81.32712
449.329	28.62739
449.54	142.47636
449.751	129.82329
449.962	125.60578
450.173	43.38186
450.384	106.62802
450.595	106.62802
450.806	102.41098
451.017	51.8135
451.228	123.49705
451.439	72.8942
451.65	131.93208
451.861	81.32712
452.072	172.00315
452.283	79.21886
452.494	98.19403
452.705	144.58528
452.915	51.8135
453.126	142.47636
453.337	51.8135
453.548	110.84515
453.759	119.27966
453.97	165.67563
454.181	131.93208
454.391	83.43541
454.602	131.93208
454.813	91.86877
455.024	157.23924
455.235	212.08167
455.445	190.9868
455.656	178.33085
455.867	136.14973
456.078	176.22159
456.288	106.62802
456.499	79.21886
456.71	140.36746
456.921	129.82329
457.131	239.50798
457.342	169.89395
457.553	144.58528
457.763	79.21886
457.974	129.82329
458.184	138.25859
458.395	201.53399
458.606	216.30089
458.816	205.753
459.027	146.69422
459.237	220.52019
459.448	203.64348
459.659	186.76807
459.869	233.17854
460.08	180.44012
460.29	250.05744
460.501	209.9721
460.711	155.13019
460.922	203.64348
461.132	224.73956
461.343	258.49735
461.553	197.31505
461.764	178.33085
461.974	203.64348
462.184	188.87742
462.395	266.93757
462.605	250.05744
462.816	338.69132
463.026	288.03942
463.236	252.16739
463.447	205.753
463.657	214.19127
463.867	319.69565
464.078	264.82749
464.288	304.92223
464.498	338.69132
464.709	292.26001
464.919	283.8189
465.129	330.24862
465.339	340.80204
465.55	326.02738
465.76	349.24509
465.97	313.36408
466.18	288.03942
466.391	366.13202
466.601	389.35331
466.811	416.79924
467.021	383.02003
467.231	543.50667
467.441	465.36403
467.651	562.51727
467.862	497.04108
468.072	501.26494
468.282	600.54173
468.492	516.0489
468.702	592.09148
468.912	554.06798
469.122	520.27302
469.332	581.52897
469.542	604.76693
469.752	651.24742
469.962	636.45753
470.172	708.29955
470.382	708.29955
470.592	606.87955
470.802	720.97891
471.012	731.54534
471.222	858.36202
471.432	765.35969
471.642	803.40391
471.852	913.32592
472.062	797.06299
472.272	987.3239
472.482	1010.58214
472.691	997.89573
472.901	983.09522
473.111	1016.92543
473.321	1048.64267
473.531	1277.0379
473.741	1203.0161
473.95	1120.53962
474.16	1082.47579
474.37	1389.13314
474.58	1348.94757
474.79	1378.55795
474.999	1281.26782
475.209	1363.75273
475.419	1323.56744
475.628	1645.05095
475.838	1480.08026
476.048	1526.61123
476.258	1577.37175
476.467	1617.55653
476.677	1623.90143
476.886	1837.49734
477.096	1685.23436
477.306	1704.26825
477.515	1877.67417
477.725	1793.08941
477.935	1841.72656
478.144	2004.53545
478.354	1919.96357
478.563	2190.55492
478.773	2017.22037
478.982	2080.64128
479.192	2125.03203
479.401	2232.82349
479.611	2148.28297
479.82	2469.45767
480.03	2604.61686
480.239	2469.45767
480.449	2505.36393
480.658	2646.8441
480.868	2678.51125
481.077	2847.35278
481.287	2511.69999
481.496	2817.81179
481.705	2889.54941
481.915	2841.0228
482.124	2864.23212
482.333	3117.30869
482.543	3035.08282
482.752	2935.95904
482.961	2999.23339
483.171	3163.68186
483.38	2999.23339
483.589	3288.00705
483.799	3332.24424
484.008	3557.52258
484.217	3376.4738
484.426	3591.19119
484.636	3534.37266
484.845	3532.26801
485.054	3429.11795
485.263	3557.52258
485.472	3751.05107
485.682	3685.85838
485.891	3666.92801
486.1	3919.20331
486.309	3883.4816
486.518	4057.83202
486.727	4106.12096
486.936	4154.39886
487.146	3864.56777
487.355	4219.45145
487.564	4049.43282
487.773	4468.97806
487.982	4238.33387
488.191	4341.10774
488.4	4372.55878
488.609	4615.61362
488.818	4422.87026
489.027	4716.10053
489.236	4556.97245
489.445	4919.00865
489.654	4757.95476
489.863	4866.73326
490.072	4538.11979
490.281	4728.65775
490.49	4749.58464
490.698	4916.91791
490.907	4937.82428
491.116	5054.85743
491.325	4927.37138
491.534	5284.53228
491.743	5109.16961
491.952	5326.261
492.16	5159.29
492.369	5317.91601
492.578	5186.43295
492.787	5468.06851
492.996	5509.75592
493.204	5603.51814
493.413	5418.0312
493.622	5641.00966
493.831	5436.79678
494.039	5609.76725
494.248	5576.43617
494.457	5921.95238
494.665	5613.93321
494.874	5888.67793
495.083	5867.87833
495.291	5811.70763
495.5	5911.55476
495.709	5994.71919
495.917	5982.24693
496.126	6183.77791
496.335	6005.11209
496.543	6187.93086
496.752	6150.55092
496.96	6210.77042
497.169	6401.68123
497.377	6488.77053
497.586	6397.53309
497.794	6550.9521
498.003	6250.21387
498.211	6640.04272
498.42	6393.38487
498.628	6753.93379
498.837	6625.5425
499.045	6677.32381
499.254	6743.58293
499.462	6679.39476
499.671	6731.16113
499.879	6869.82451
500.087	6822.23519
500.296	7078.66203
500.504	6851.20403
500.713	6971.17045
500.921	6892.58037
501.129	7045.59416
501.338	6795.33155
501.546	7111.72417
501.754	6880.16842
501.962	7018.72229
502.171	7235.65645
502.379	7396.64971
502.587	6979.44119
502.795	7126.18705
503.004	6942.22001
503.212	7404.90218
503.42	7097.26018
503.628	7359.50924
503.837	7332.68117
504.045	7268.6916
504.253	7664.67863
504.461	7602.85794
504.669	7543.0797
504.877	7582.24678
505.085	7777.96716
505.294	7604.91894
505.502	7623.46696
505.71	7932.34972
505.918	7421.4061
506.126	7590.4915
506.334	7571.9404
506.542	7788.26297
506.75	7726.48026
506.958	7841.79276
507.166	7961.15494
507.374	8012.58287
507.582	7854.1438
507.79	7977.61327
507.998	7784.14471
508.206	7938.52261
508.414	7920.0034
508.622	8281.85933
508.83	7882.95997
509.037	8158.56915
509.245	8212.00364
509.453	8296.23856
509.661	8324.99414
509.869	8347.58512
510.077	8076.33585
510.285	8481.02953
510.492	8333.20931
510.7	8448.18922
510.908	8355.79944
511.116	8520.02107
511.324	8446.13654
511.531	8546.69554
511.739	8300.34673
511.947	8696.42404
512.155	8511.8129
512.362	9003.77927
512.57	8563.10901
512.778	8692.32321
512.985	8454.34715
513.193	8786.6237
513.401	8792.77239
513.608	8872.69051
513.816	8942.34046
514.024	8874.73934
514.231	8694.37363
514.439	8977.15773
514.646	8987.39713
514.854	9091.81408
515.061	8723.07763
515.269	8973.06185
515.477	8796.87142
515.684	8966.91789
515.892	8901.3724
516.099	9273.9248
516.307	9079.53208
516.514	9163.44672
516.722	9259.60633
516.929	9104.09545
517.136	9175.7245
517.344	9245.28705
517.551	9161.40037
517.759	9421.1533
517.966	9423.19754
518.173	9429.33017
518.381	9566.25452
518.588	9582.59892
518.796	9605.07083
519.003	9498.82314
519.21	9273.9248
519.418	9543.77931
519.625	9474.29834
519.832	9731.69553
520.039	9637.75387
520.247	9699.02386
520.454	9576.46989
520.661	9790.903
520.868	9690.85533
521.076	9937.84645
521.283	9937.84645
521.49	9929.68493
521.697	9725.56989
521.904	9880.71089
522.112	9807.23385
522.319	10107.14598
522.526	9662.26354
522.733	10137.73186
522.94	9888.87382
523.147	10029.64757
523.354	10037.80626
523.561	10188.70137
523.768	10007.20999
523.975	10473.97469
524.183	10384.34531
524.39	10341.55874
524.597	10329.33293
524.804	10449.5328
525.011	10215.20212
525.218	10359.89655
525.425	10327.29525
525.632	10506.561
525.838	10353.78407
526.045	10398.60622
526.252	10429.16314
526.459	10620.58765
526.666	10392.49448
526.873	10856.66386
527.08	10418.97783
527.287	10807.83363
527.494	10471.93794
527.701	10864.80158
527.907	10874.97348
528.114	10885.14508
528.321	10734.57557
528.528	11019.38369
528.735	11125.11345
528.941	10832.24958
529.148	10840.38786
529.355	11177.96743
529.562	10740.681
529.768	11153.57418
529.975	10801.72937
530.182	11165.77099
530.388	11039.71862
530.595	11243.00871
530.802	11051.91906
531.008	11458.38364
531.215	11358.83746
531.422	11549.78322
531.628	11316.16753
531.835	11234.87913
532.042	11259.26737
532.248	11584.30699
532.455	11458.38364
532.661	11535.56677
532.868	11360.86925
533.074	11710.19484
533.281	11543.69051
533.487	11744.70648
533.694	11551.8141
533.9	12280.34713
534.107	11693.95319
534.313	11905.05146
534.52	11955.78269
534.726	11925.34456
534.933	11681.77158
535.139	12030.85568
535.345	11919.25672
535.552	12043.02865
535.758	12136.34557
535.965	12034.91337
536.171	12085.63187
536.377	12209.36505
536.584	11864.46277
536.79	11781.24546
536.996	12172.85651
537.203	12335.09879
537.409	12130.26017
537.615	12274.2633
537.821	12371.59707
538.028	12377.67991
538.234	12199.22403
538.44	12371.59707
538.646	12156.62972
538.853	12432.42266
539.059	12383.76268
539.265	12483.10607
539.471	12440.53228
539.677	12225.59031
539.883	12274.2633
540.09	12371.59707
540.296	12545.94786
540.502	12618.91784
540.708	12622.97149
540.914	12973.52524
541.12	12732.41106
541.326	13238.87024
541.532	12699.98632
541.738	13016.06703
541.944	12829.6765
542.15	13188.23806
542.356	12961.37003
542.562	13202.41535
542.768	13044.427
542.974	13222.66824
543.18	12965.42179
543.386	13115.32274
543.592	13226.71877
543.798	13131.52667
544.004	13127.47571
544.21	13404.925
544.415	13421.124
544.621	13281.39915
544.827	13299.62524
545.033	13540.58407
545.239	13348.2265
545.445	13815.90371
545.651	13597.27254
545.856	13880.67652
546.062	13552.73183
546.268	13704.56839
546.474	13534.51014
546.679	13536.53478
546.885	13419.09914
547.091	13603.34614
547.297	13305.70053
547.502	13682.3002
547.708	13524.38685
547.914	13489.96698
548.119	13560.83027
548.325	13856.38705
548.531	13396.82541
548.736	13660.03162
548.942	13787.56468
549.147	13708.61711
549.353	13629.66473
549.559	13943.42249
549.764	13728.86053
549.97	13591.1989
550.175	13631.68921
550.381	13773.39494
550.586	13809.83111
550.792	14234.85714
550.997	14109.38403
551.203	14228.78604
551.408	14443.28861
551.614	14319.85079
551.819	14109.38403
552.025	14327.94526
552.23	14382.58223
552.435	14265.21239
552.641	14631.47057
552.846	14433.17097
553.052	14425.07684
553.257	14287.47264
553.462	14453.40621
553.668	14441.26508
553.873	14720.4995
554.078	14526.25189
554.283	14416.98268
554.489	14829.76002
554.694	14447.33565
554.899	14570.76787
555.105	14678.00865
555.31	14856.06317
555.515	14999.71729
555.72	14961.27485
555.925	14866.17973
556.131	15299.16185
556.336	14906.64587
556.541	15200.02141
556.746	14959.25156
556.951	14843.92326
557.156	15133.25348
557.361	14868.20305
557.567	14991.62415
557.772	15034.11306
557.977	14839.87662
558.182	15266.78942
558.387	15384.13982
558.592	15195.97487
558.797	15042.20617
559.002	14975.43787
559.207	14785.24674
559.412	15287.02218
559.617	15256.67304
559.822	15270.83597
560.027	15299.16185
560.232	15380.09324
560.437	15202.04468
560.642	15185.85852
560.847	15289.04546
561.051	15335.58091
561.256	15234.41703
561.461	15382.11653
561.666	15495.42161
561.871	15513.63151
562.076	15161.57927
562.281	15620.86871
562.485	15032.08978
562.69	15139.32329
562.895	15416.51255
563.1	15444.83879
563.305	15620.86871
563.509	15537.91146
563.714	15614.79863
563.919	15641.10239
564.123	15242.51012
564.328	15535.88813
564.533	15699.78053
564.737	15511.60819
564.942	15446.8621
565.147	15760.48288
565.351	16086.2702
565.556	15819.1627
565.761	15760.48288
565.965	15693.71034
566.17	15566.23819
566.374	15720.01455
566.579	15987.11391
566.784	16025.56185
566.988	15622.89208
567.193	16041.75061
567.397	15873.79649
567.602	15778.69376
567.806	15562.19151
568.011	16132.81419
568.215	16151.02728
568.42	16357.45208
568.624	16236.02351
568.828	15928.43117
569.033	15894.03145
569.237	16102.45932
569.442	16282.57035
569.646	16442.45614
569.85	15983.06679
570.055	16472.81558
570.259	16231.976
570.463	16104.48296
570.668	16213.7623
570.872	16100.43567
571.076	16191.50131
571.281	16248.16607
571.485	16450.55194
571.689	16772.3884
571.893	16563.89675
572.098	16661.05486
572.302	16404.00149
572.506	16513.29557
572.71	16335.18967
572.914	16460.67175
573.119	16331.14199
573.323	16416.14498
573.527	16124.71952
