Data from absorb_only_2.23.25_USB4F045381__21__0126.txt Node

Date: Sun Feb 23 19:15:51 EST 2025
User: ssocol
Spectrometer: USB4F04538
Trigger mode: 4
Integration Time (sec): 2.600000E-3
Scans to average: 1
Electric dark correction enabled: true
Nonlinearity correction enabled: true
Boxcar width: 0
XAxis mode: Wavelengths
Number of Pixels in Spectrum: 3648
>>>>>Begin Spectral Data<<<<<
345.52	-25.81353
345.736	-25.81353
345.952	-25.81353
346.168	-42.66935
346.384	-27.92059
346.6	14.22533
346.816	-57.41689
347.032	-17.38502
347.248	-4.74153
347.464	28.97868
347.68	-32.13465
347.896	62.70491
348.112	96.437
348.328	10.01031
348.544	-2.6342
348.76	-30.02763
348.975	-67.95008
349.191	-57.41689
349.407	24.76332
349.623	12.11781
349.839	-6.84884
350.055	-0.52684
350.27	-40.56246
350.486	-42.66935
350.702	-61.63024
350.918	-6.84884
351.133	-17.38502
351.349	-101.65198
351.565	-55.31017
351.781	-46.88306
351.996	-80.58907
352.212	41.62532
352.428	-34.24164
352.644	-40.56246
352.859	24.76332
353.075	41.62532
353.291	-99.54581
353.506	-57.41689
353.722	-34.24164
353.938	-63.73688
354.153	-74.26969
354.369	-53.20343
354.584	75.35377
354.8	-89.01455
355.016	-32.13465
355.231	-2.6342
355.447	18.44046
355.662	18.44046
355.878	-46.88306
356.093	-0.52684
356.309	16.33288
356.524	-63.73688
356.74	-21.59933
356.955	-27.92059
357.171	-84.80186
357.386	-57.41689
357.602	-27.92059
357.817	-55.31017
358.033	-13.17063
358.248	-2.6342
358.464	-8.95613
358.679	-114.28848
358.895	-0.52684
359.11	20.54805
359.325	28.97868
359.541	-32.13465
359.756	24.76332
359.972	-44.77622
360.187	-19.49219
360.402	-55.31017
360.618	1.58054
360.833	-46.88306
361.048	-42.66935
361.264	-4.74153
361.479	-55.31017
361.694	7.90283
361.909	-4.74153
362.125	-70.05664
362.34	-17.38502
362.555	35.30189
362.77	3.68794
362.986	-61.63024
363.201	-59.52357
363.416	-48.98987
363.631	-32.13465
363.847	-0.52684
364.062	-25.81353
364.277	-30.02763
364.492	7.90283
364.707	-42.66935
364.922	-89.01455
365.138	-32.13465
365.353	5.79537
365.568	-34.24164
365.783	-23.70644
365.998	-78.48264
366.213	-38.45555
366.428	-25.81353
366.643	-34.24164
366.858	-46.88306
367.073	-67.95008
367.288	-51.09666
367.503	-36.3486
367.718	-13.17063
367.933	-4.74153
368.148	5.79537
368.363	-4.74153
368.578	-80.58907
368.793	3.68794
369.008	-51.09666
369.223	-8.95613
369.438	1.58054
369.653	-55.31017
369.868	7.90283
370.083	26.87099
370.298	-4.74153
370.513	-30.02763
370.728	-51.09666
370.943	35.30189
371.157	-17.38502
371.372	14.22533
371.587	-65.84349
371.802	-95.33338
372.017	-27.92059
372.232	28.97868
372.446	-17.38502
372.661	-46.88306
372.876	-21.59933
373.091	-91.12085
373.306	-76.37618
373.52	45.84105
373.735	12.11781
373.95	-51.09666
374.165	-59.52357
374.379	-21.59933
374.594	3.68794
374.809	58.48881
375.023	45.84105
375.238	-57.41689
375.453	-2.6342
375.667	-72.16318
375.882	7.90283
376.097	22.65567
376.311	-38.45555
376.526	-67.95008
376.741	-32.13465
376.955	-4.74153
377.17	-25.81353
377.384	-11.06339
377.599	-0.52684
377.813	-38.45555
378.028	-30.02763
378.242	1.58054
378.457	-34.24164
378.672	1.58054
378.886	24.76332
379.101	-36.3486
379.315	-48.98987
379.53	3.68794
379.744	-17.38502
379.958	-25.81353
380.173	-67.95008
380.387	-74.26969
380.602	1.58054
380.816	31.08639
381.031	-25.81353
381.245	-8.95613
381.459	16.33288
381.674	43.73317
381.888	-42.66935
382.103	-63.73688
382.317	18.44046
382.531	26.87099
382.746	12.11781
382.96	16.33288
383.174	-17.38502
383.388	-21.59933
383.603	-2.6342
383.817	1.58054
384.031	-17.38502
384.246	75.35377
384.46	7.90283
384.674	-30.02763
384.888	24.76332
385.103	-34.24164
385.317	-17.38502
385.531	14.22533
385.745	-4.74153
385.959	-13.17063
386.174	-38.45555
386.388	-40.56246
386.602	-8.95613
386.816	-23.70644
387.03	-27.92059
387.244	66.92111
387.458	-15.27784
387.672	20.54805
387.887	3.68794
388.101	-51.09666
388.315	-38.45555
388.529	-4.74153
388.743	-72.16318
388.957	16.33288
389.171	-59.52357
389.385	-76.37618
389.599	-15.27784
389.813	33.19413
390.027	-30.02763
390.241	-70.05664
390.455	1.58054
390.669	35.30189
390.883	7.90283
391.097	-13.17063
391.311	-23.70644
391.525	33.19413
391.738	-15.27784
391.952	-17.38502
392.166	-51.09666
392.38	90.11179
392.594	35.30189
392.808	-63.73688
393.022	-21.59933
393.236	-15.27784
393.449	-67.95008
393.663	16.33288
393.877	28.97868
394.091	-30.02763
394.305	-17.38502
394.518	-27.92059
394.732	-93.22713
394.946	7.90283
395.16	-38.45555
395.373	3.68794
395.587	-0.52684
395.801	14.22533
396.015	7.90283
396.228	-25.81353
396.442	-27.92059
396.656	-23.70644
396.869	-15.27784
397.083	-30.02763
397.297	-21.59933
397.51	10.01031
397.724	20.54805
397.938	-82.69548
398.151	-17.38502
398.365	41.62532
398.578	1.58054
398.792	-59.52357
399.005	35.30189
399.219	-25.81353
399.433	24.76332
399.646	-65.84349
399.86	-4.74153
400.073	39.51749
400.287	-25.81353
400.5	52.16483
400.714	-40.56246
400.927	-34.24164
401.141	-11.06339
401.354	39.51749
401.567	-55.31017
401.781	-23.70644
401.994	-0.52684
402.208	-55.31017
402.421	-34.24164
402.635	1.58054
402.848	24.76332
403.061	-8.95613
403.275	24.76332
403.488	-13.17063
403.701	26.87099
403.915	-48.98987
404.128	-8.95613
404.341	-59.52357
404.555	-44.77622
404.768	-23.70644
404.981	7.90283
405.195	77.46199
405.408	-57.41689
405.621	-19.49219
405.834	-42.66935
406.048	-21.59933
406.261	-8.95613
406.474	-21.59933
406.687	-13.17063
406.9	-38.45555
407.114	-95.33338
407.327	39.51749
407.54	66.92111
407.753	26.87099
407.966	-25.81353
408.179	-27.92059
408.392	66.92111
408.605	10.01031
408.819	-46.88306
409.032	-6.84884
409.245	-80.58907
409.458	10.01031
409.671	-25.81353
409.884	37.40968
410.097	28.97868
410.31	109.088
410.523	-44.77622
410.736	26.87099
410.949	-17.38502
411.162	-19.49219
411.375	-27.92059
411.588	50.05688
411.801	58.48881
412.014	-48.98987
412.227	3.68794
412.44	41.62532
412.653	-0.52684
412.865	16.33288
413.078	26.87099
413.291	100.65391
413.504	-51.09666
413.717	71.13739
413.93	-21.59933
414.143	-4.74153
414.356	-32.13465
414.568	52.16483
414.781	18.44046
414.994	100.65391
415.207	-67.95008
415.42	3.68794
415.632	5.79537
415.845	16.33288
416.058	-32.13465
416.271	-46.88306
416.483	28.97868
416.696	12.11781
416.909	-27.92059
417.121	10.01031
417.334	52.16483
417.547	3.68794
417.759	50.05688
417.972	79.57023
418.185	-38.45555
418.397	-0.52684
418.61	-13.17063
418.823	45.84105
419.035	16.33288
419.248	-2.6342
419.46	54.2728
419.673	24.76332
419.885	18.44046
420.098	-0.52684
420.311	-30.02763
420.523	35.30189
420.736	41.62532
420.948	22.65567
421.161	75.35377
421.373	24.76332
421.586	33.19413
421.798	-25.81353
422.01	-0.52684
422.223	16.33288
422.435	77.46199
422.648	18.44046
422.86	24.76332
423.073	22.65567
423.285	69.02924
423.497	33.19413
423.71	58.48881
423.922	16.33288
424.134	10.01031
424.347	-0.52684
424.559	66.92111
424.771	92.22017
424.984	45.84105
425.196	1.58054
425.408	16.33288
425.621	102.7624
425.833	60.59685
426.045	60.59685
426.257	7.90283
426.47	69.02924
426.682	69.02924
426.894	73.24557
427.106	33.19413
427.318	119.63111
427.531	16.33288
427.743	50.05688
427.955	83.78679
428.167	92.22017
428.379	119.63111
428.591	43.73317
428.804	109.088
429.016	62.70491
429.228	39.51749
429.44	79.57023
429.652	20.54805
429.864	88.00344
430.076	69.02924
430.288	-8.95613
430.5	52.16483
430.712	-0.52684
430.924	66.92111
431.136	54.2728
431.348	52.16483
431.56	62.70491
431.772	75.35377
431.984	1.58054
432.196	41.62532
432.408	102.7624
432.62	96.437
432.832	119.63111
433.044	83.78679
433.256	117.52244
433.468	79.57023
433.679	142.82785
433.891	83.78679
434.103	106.97945
434.315	142.82785
434.527	201.88557
434.739	125.95723
434.95	85.8951
435.162	128.06598
435.374	75.35377
435.586	197.66663
435.798	134.39237
436.009	147.04571
436.221	83.78679
436.433	58.48881
436.645	106.97945
436.856	83.78679
437.068	64.813
437.28	197.66663
437.491	142.82785
437.703	168.13631
437.915	159.69982
438.126	195.55718
438.338	149.15468
438.55	149.15468
438.761	172.35468
438.973	178.68239
439.184	75.35377
439.396	106.97945
439.608	185.01029
439.819	187.11962
440.031	109.088
440.242	170.24549
440.454	197.66663
440.665	163.91802
440.877	159.69982
441.088	246.18925
441.3	176.57313
441.511	214.54287
441.723	193.44776
441.934	153.37267
442.146	111.19658
442.357	161.80891
442.569	197.66663
442.78	170.24549
442.991	277.83996
443.203	220.8718
443.414	279.95016
443.626	197.66663
443.837	256.73901
444.048	248.29916
444.26	298.94277
444.471	265.17916
444.682	225.09118
444.894	168.13631
445.105	191.33836
445.316	332.71105
445.528	244.07936
445.739	277.83996
445.95	210.32369
446.161	273.61962
446.373	324.26855
446.584	220.8718
446.795	239.85962
447.006	246.18925
447.217	246.18925
447.429	362.262
447.64	313.71583
447.851	298.94277
448.062	298.94277
448.273	214.54287
448.484	265.17916
448.695	296.83241
448.907	263.0691
449.118	282.06037
449.329	244.07936
449.54	345.37533
449.751	265.17916
449.962	311.60534
450.173	330.6004
450.384	391.8163
450.595	457.26933
450.806	463.6043
451.017	374.92772
451.228	313.71583
451.439	286.28086
451.65	353.81853
451.861	320.04741
452.072	273.61962
452.283	362.262
452.494	484.72183
452.705	402.37219
452.915	512.17684
453.126	379.14977
453.337	446.71136
453.548	480.4982
453.759	421.37383
453.97	539.63428
454.181	552.30774
454.391	520.62503
454.602	526.96132
454.813	472.05113
455.024	550.19546
455.235	465.71598
455.445	531.18558
455.656	486.83367
455.867	535.4099
456.078	488.94552
456.288	493.16926
456.499	526.96132
456.71	539.63428
456.921	583.99353
457.131	666.39007
457.342	488.94552
457.553	651.59957
457.763	583.99353
457.974	698.0859
458.184	628.35855
458.395	776.27947
458.606	691.74653
458.816	810.0972
459.027	909.45008
459.237	805.86985
459.448	753.03124
459.659	674.84204
459.869	810.0972
460.08	784.73367
460.29	947.50485
460.501	920.02061
460.711	903.10786
460.922	827.00696
461.132	1004.59131
461.343	896.76571
461.553	972.876
461.764	983.44761
461.974	998.24813
462.184	886.19561
462.395	1108.20395
462.605	1207.59829
462.816	958.07604
463.026	1203.36858
463.236	1055.3387
463.447	1319.68995
463.657	1080.71362
463.867	1283.73527
464.078	1317.57495
464.288	1243.55141
464.498	1400.06086
464.709	1378.91046
464.919	1431.78658
465.129	1440.24679
465.339	1448.707
465.55	1510.04342
465.76	1410.63609
465.97	1406.406
466.18	1433.90163
466.391	1689.81661
466.601	1732.11366
466.811	1804.01535
467.021	1651.74825
467.231	1793.44186
467.441	1734.22848
467.651	2049.28395
467.862	1930.88797
468.072	2171.88521
468.282	2083.10751
468.492	2089.44923
468.702	2146.52157
468.912	2343.05699
469.122	2188.79365
469.332	2400.10036
469.542	2273.32756
469.752	2499.37978
469.962	2467.69747
470.172	2503.60389
470.382	2607.08025
470.592	2493.04352
470.802	2708.41647
471.012	2803.39198
471.222	2784.39906
471.432	2938.41996
471.642	2832.93431
471.852	2936.3106
472.062	2807.61248
472.272	3130.30802
472.482	3235.68516
472.691	3307.31787
472.901	3178.78658
473.111	3423.15217
473.321	3345.23308
473.531	3435.78542
473.741	3383.14267
473.95	3642.03573
474.16	3549.45544
474.37	3951.06777
474.58	3837.59524
474.79	4049.7828
474.999	3894.33882
475.209	3921.65459
475.419	3852.30793
475.628	4330.97248
475.838	4219.80114
476.048	4299.51501
476.258	4347.74781
476.467	4527.99448
476.677	4504.94873
476.886	4879.62918
477.096	4749.9334
477.306	4787.59602
477.515	4881.72033
477.725	5023.86462
477.935	4800.14859
478.144	5000.87791
478.354	5174.25391
478.563	5272.35963
478.773	5193.0441
478.982	5508.01913
479.192	5722.56202
479.401	5545.5301
479.611	5468.41594
479.82	5712.1531
480.03	5753.78525
480.239	5791.24612
480.449	5878.62508
480.658	6024.16421
480.868	6308.67151
481.077	6316.97168
481.287	6098.96796
481.496	6731.50619
481.705	6385.43384
481.915	6491.18909
482.124	6397.87877
482.333	6314.89667
482.543	6495.33512
482.752	6588.59636
482.961	6847.41075
483.171	7120.33316
483.38	7008.7305
483.589	7031.46968
483.799	7250.45414
484.008	7566.09989
484.217	7269.03568
484.426	7374.29749
484.636	7475.37796
484.845	7266.97115
485.054	7450.62837
485.263	7788.60615
485.472	7720.64426
485.682	8109.57568
485.891	7967.66985
486.1	7973.84168
486.309	8146.57879
486.518	8364.3557
486.727	7940.92313
486.936	8345.87377
487.146	8329.44406
487.355	8534.72662
487.564	8413.63317
487.773	8551.14098
487.982	8575.76024
488.191	8817.70706
488.4	8729.56971
488.609	8842.29754
488.818	8997.97739
489.027	9116.71733
489.236	8797.213
489.445	9174.01929
489.654	9149.46295
489.863	9660.56155
490.072	9241.53663
490.281	9517.55582
490.49	9486.90165
490.698	9664.6463
490.907	9460.33179
491.116	9936.14615
491.325	9693.23784
491.534	10158.46051
491.743	9825.94512
491.952	9909.6202
492.16	10213.50342
492.369	10195.1569
492.578	10256.30768
492.787	10276.68855
492.996	10572.06325
493.204	10307.25734
493.413	10643.32043
493.622	10547.6287
493.831	10592.424
494.039	10688.10295
494.248	10881.41553
494.457	10987.18444
494.665	10895.65544
494.874	10983.11697
495.083	10834.62327
495.291	11316.5062
495.5	11123.4193
495.709	11328.69805
495.917	11151.88015
496.126	11357.14429
496.335	11349.01699
496.543	11574.49168
496.752	11546.05991
496.96	11728.80437
497.169	11554.18346
497.377	11690.23106
497.586	11409.96786
497.794	11972.35379
498.003	11531.84333
498.211	11962.20828
498.42	11781.58377
498.628	11976.41194
498.837	12158.99616
499.045	12156.96778
499.254	11897.27222
499.462	12378.01784
499.671	12010.90491
499.879	12382.07302
500.087	12558.44792
500.296	12637.49688
500.504	12637.49688
500.713	12682.08451
500.921	12562.50195
501.129	12611.14827
501.338	12607.09454
501.546	12795.56753
501.754	12692.21767
501.962	12844.19767
502.171	12811.77793
502.379	13133.88971
502.587	12830.0142
502.795	13192.62629
503.004	12795.56753
503.212	13079.20041
503.42	13133.88971
503.628	13310.08822
503.837	13065.02113
504.045	13423.48633
504.253	13310.08822
504.461	13516.6256
504.669	13725.14926
504.877	13530.79828
505.085	13551.04465
505.294	13492.32917
505.502	13419.43661
505.71	13814.21688
505.918	13883.03797
506.126	13933.63968
506.334	13348.564
506.542	14044.95778
506.75	13814.21688
506.958	14131.98328
507.166	14049.00557
507.374	14285.78626
507.582	13893.15845
507.79	13970.07189
507.998	14000.43144
508.206	14560.9879
508.414	14293.88085
508.622	14239.24182
508.83	14486.11953
509.037	14637.87802
509.245	14348.51858
509.453	14399.10799
509.661	14433.50823
509.869	14805.81731
510.077	14293.88085
510.285	15012.1942
510.492	14927.21608
510.7	15176.07937
510.908	14779.51394
511.116	14876.63351
511.324	14789.63064
511.531	15202.38189
511.739	14842.23716
511.947	15163.93975
512.155	14989.93808
512.362	14975.77508
512.57	14686.43941
512.778	14894.84327
512.985	15119.42779
513.193	15123.47434
513.401	15143.70705
513.608	15297.47578
513.816	15337.94141
514.024	15137.63723
514.231	15362.22084
514.439	15594.90229
514.646	15726.42201
514.854	15738.56248
515.061	15127.52088
515.269	15645.48636
515.477	15515.99206
515.684	15730.46883
515.892	15799.26542
516.099	15938.88606
516.307	15829.61725
516.514	16426.60194
516.722	16011.73402
516.929	16193.86231
517.136	16005.66329
517.344	16309.21716
517.551	16108.86754
517.759	16357.78939
517.966	16248.50337
518.173	16179.69631
518.381	16456.96115
518.588	16341.59852
518.796	16422.55408
519.003	16347.67008
519.21	16363.86099
519.418	16541.96941
519.625	16386.12369
519.832	16746.40993
520.039	16604.71602
520.247	17090.57426
520.454	16794.99337
520.661	17165.4909
520.868	16845.60262
521.076	17019.71068
521.283	16813.21252
521.49	16794.99337
521.697	17033.88313
521.904	17122.97017
522.112	16799.04205
522.319	17262.68589
522.526	17161.44125
522.733	17598.87233
522.94	17465.19755
523.147	17414.56677
523.354	17260.66093
523.561	17414.56677
523.768	17459.12176
523.975	17718.38146
524.183	17479.37453
524.39	17779.15326
524.597	17542.16012
524.804	17809.5403
525.011	17604.94879
525.218	17611.02528
525.425	17817.64364
525.632	17669.76619
525.838	17989.85275
526.045	17925.01813
526.252	17661.66383
526.459	18243.1482
526.666	18046.58602
526.873	18018.21904
527.08	18016.19285
527.287	18687.06258
527.494	17983.77435
527.701	18320.16137
527.907	18401.23372
528.114	18537.04354
528.321	18431.63742
528.528	19013.53007
528.735	18737.74953
528.941	18798.57712
529.148	18760.05256
529.355	18938.4942
529.562	18537.04354
529.768	18926.32674
529.975	18672.87067
530.182	19177.81716
530.388	18616.10497
530.595	19173.76037
530.802	18822.90916
531.008	19540.96696
531.215	19171.73198
531.422	19309.67189
531.628	19413.13934
531.835	19173.76037
532.042	19591.69679
532.248	19707.37056
532.455	19540.96696
532.661	19445.60194
532.868	19362.41866
533.074	19585.60907
533.281	19547.05441
533.487	19837.2661
533.694	19581.55062
533.9	20188.47613
534.107	19770.28657
534.313	20097.10881
534.52	20340.77392
534.726	19794.64223
534.933	19646.48794
535.139	20082.89688
535.345	20093.04823
535.552	20151.92818
535.758	20458.56707
535.965	20645.44025
536.171	20619.03211
536.377	20696.22711
536.584	20627.15762
536.79	20769.36475
536.996	20653.56597
537.203	20645.44025
537.409	20385.45242
537.615	20631.2204
537.821	20771.39643
538.028	21017.25994
538.234	21102.61507
538.44	20893.30467
538.646	20673.88057
538.853	20901.43242
539.059	20799.84035
539.265	21440.04107
539.471	20875.01749
539.677	21064.00114
539.883	20913.62416
540.09	21005.06694
540.296	21120.90639
540.502	21064.00114
540.708	21442.07409
540.914	21669.79768
541.12	21411.57917
541.326	21354.65774
541.532	21417.67808
541.738	21954.52108
541.944	21830.45372
542.15	21930.11326
542.356	21730.80345
542.562	21932.14722
542.768	21879.2654
542.974	22086.7396
543.18	21454.27231
543.386	21793.84642
543.592	22166.07835
543.798	22284.07978
544.004	22349.18933
544.21	22607.62939
544.415	22381.7455
544.621	23035.0953
544.827	22367.50206
545.033	22917.01823
545.239	22452.96538
545.445	22974.01954
545.651	22469.24482
545.856	22790.81051
546.062	22391.9195
546.268	22754.17203
546.474	22400.05876
546.679	22247.45732
546.885	22587.27769
547.091	22438.72105
547.297	22487.55948
547.502	22442.79084
547.708	22654.43965
547.914	22786.73951
548.119	23035.0953
548.325	22870.1977
548.531	22772.49113
548.736	23145.0392
548.942	22609.66458
549.147	22652.40438
549.353	22864.09081
549.559	23397.53881
549.764	22933.30405
549.97	23155.21968
550.175	23366.99189
550.381	23615.46045
550.586	23073.77817
550.792	23322.19104
550.997	23358.84617
551.203	23454.56161
551.408	23701.00934
551.614	23756.00783
551.819	23923.05341
552.025	24004.54609
552.23	24236.82472
552.435	24136.98127
552.641	24063.6311
552.846	23937.3143
553.052	24073.81841
553.257	24159.39454
553.462	23768.23002
553.668	23764.15594
553.873	24037.14442
554.078	23888.42041
554.283	23790.63762
554.489	24257.20173
554.694	24134.94372
554.899	24084.00579
555.105	24410.03781
555.31	24263.31489
555.515	24489.51838
555.72	24668.87334
555.925	24410.03781
556.131	25019.48514
556.336	24654.60576
556.541	24872.70891
556.746	24803.40212
556.951	24760.59636
557.156	24575.11719
557.361	24522.12692
557.567	25076.568
557.772	25019.48514
557.977	25048.02635
558.182	24970.5584
558.387	24923.67152
558.592	25247.82705
558.797	24927.74859
559.002	24878.82434
559.207	24556.77421
559.412	24915.5174
559.617	24778.94156
559.822	25374.24233
560.027	25441.53119
560.232	25196.85547
560.437	25211.12738
560.642	25382.39844
560.847	25857.54708
561.051	25757.61432
561.256	25508.82229
561.461	25278.41064
561.666	25270.25497
561.871	25286.56635
562.076	25209.08853
562.281	25472.11778
562.485	25382.39844
562.69	25451.72667
562.895	25125.49757
563.1	25855.50759
563.305	25478.23515
563.509	25671.96131
563.714	25378.32038
563.919	25820.83656
564.123	25800.44209
564.328	25851.42862
564.533	25753.53553
564.737	25392.59362
564.942	26251.20214
565.147	26112.49754
565.351	26110.45782
565.556	25702.55128
565.761	25994.19703
565.965	25975.84059
566.17	25794.32379
566.374	25851.42862
566.579	25798.40265
566.784	26202.24667
566.988	26232.84372
567.193	26300.15858
567.397	26157.37169
567.602	26342.99625
567.806	26289.95924
568.011	26563.31554
568.215	26342.99625
568.42	26553.11516
568.624	26444.9936
568.828	26653.08051
569.033	26579.63622
569.237	26726.52676
569.442	26651.04036
