Data from absorb_only_2.23.25_USB4F045381__76__0181.txt Node

Date: Sun Feb 23 19:27:49 EST 2025
User: ssocol
Spectrometer: USB4F04538
Trigger mode: 4
Integration Time (sec): 2.600000E-3
Scans to average: 1
Electric dark correction enabled: true
Nonlinearity correction enabled: true
Boxcar width: 0
XAxis mode: Wavelengths
Number of Pixels in Spectrum: 3648
>>>>>Begin Spectral Data<<<<<
345.52	48.12461
345.736	48.12461
345.952	48.12461
346.168	94.50427
346.384	5.97099
346.6	-21.42373
346.816	-29.85205
347.032	-61.45468
347.248	-2.45859
347.464	-48.81431
347.68	73.42125
347.896	-17.20943
348.112	60.77252
348.328	-10.88778
348.544	22.83131
348.76	54.44846
348.975	-19.31659
349.191	10.18593
349.407	27.04663
349.623	39.69314
349.839	20.72369
350.055	16.50851
350.27	-63.56133
350.486	37.58533
350.702	64.98867
350.918	-31.95906
351.133	-21.42373
351.349	10.18593
351.565	37.58533
351.781	1.75615
351.996	43.90883
352.212	-31.95906
352.428	90.28749
352.644	52.34049
352.859	31.26204
353.075	27.04663
353.291	18.61609
353.506	-4.56592
353.722	37.58533
353.938	-8.78052
354.153	33.36978
354.369	-82.51994
354.584	-27.74501
354.8	73.42125
355.016	20.72369
355.231	10.18593
355.447	37.58533
355.662	52.34049
355.878	-19.31659
356.093	60.77252
356.309	-10.88778
356.524	33.36978
356.74	5.97099
356.955	56.55646
357.171	20.72369
357.386	18.61609
357.602	-36.17303
357.817	-46.70749
358.033	39.69314
358.248	-10.88778
358.464	-23.53085
358.679	22.83131
358.895	39.69314
359.11	-12.99502
359.325	52.34049
359.541	-2.45859
359.756	-10.88778
359.972	1.75615
360.187	-4.56592
360.402	1.75615
360.618	46.01671
360.833	43.90883
361.048	10.18593
361.264	-6.67324
361.479	3.86356
361.694	60.77252
361.909	86.0708
362.125	10.18593
362.34	39.69314
362.555	1.75615
362.77	86.0708
362.986	31.26204
363.201	-15.10224
363.416	-19.31659
363.631	48.12461
363.847	43.90883
364.062	56.55646
364.277	-29.85205
364.492	18.61609
364.707	35.47754
364.922	29.15432
365.138	83.96248
365.353	46.01671
365.568	12.29343
365.783	-4.56592
365.998	-29.85205
366.213	1.75615
366.428	10.18593
366.643	-29.85205
366.858	-48.81431
367.073	46.01671
367.288	-19.31659
367.503	39.69314
367.718	71.31307
367.933	-29.85205
368.148	14.40096
368.363	-61.45468
368.578	18.61609
368.793	-0.35123
369.008	29.15432
369.223	-38.27997
369.438	24.93896
369.653	52.34049
369.868	-15.10224
370.083	60.77252
370.298	1.75615
370.513	10.18593
370.728	-36.17303
370.943	18.61609
371.157	31.26204
371.372	69.20492
371.587	18.61609
371.802	-17.20943
372.017	-29.85205
372.232	-82.51994
372.446	3.86356
372.661	1.75615
372.876	-78.3071
373.091	58.66448
373.306	-21.42373
373.52	69.20492
373.735	-2.45859
373.95	14.40096
374.165	24.93896
374.379	50.23254
374.594	-21.42373
374.809	8.07845
375.023	14.40096
375.238	-27.74501
375.453	18.61609
375.667	50.23254
375.882	8.07845
376.097	48.12461
376.311	5.97099
376.526	10.18593
376.741	35.47754
376.955	3.86356
377.17	5.97099
377.384	-6.67324
377.599	-6.67324
377.813	71.31307
378.028	29.15432
378.242	-44.60065
378.457	-19.31659
378.672	79.74592
378.886	33.36978
379.101	10.18593
379.315	-12.99502
379.53	-23.53085
379.744	52.34049
379.958	69.20492
380.173	48.12461
380.387	64.98867
380.602	1.75615
380.816	1.75615
381.031	35.47754
381.245	111.37229
381.459	27.04663
381.674	20.72369
381.888	-19.31659
382.103	16.50851
382.317	1.75615
382.531	-0.35123
382.746	33.36978
382.96	14.40096
383.174	-4.56592
383.388	10.18593
383.603	46.01671
383.817	1.75615
384.031	12.29343
384.246	10.18593
384.46	-21.42373
384.674	-6.67324
384.888	-15.10224
385.103	31.26204
385.317	50.23254
385.531	1.75615
385.745	-15.10224
385.959	60.77252
386.174	46.01671
386.388	-15.10224
386.602	18.61609
386.816	-2.45859
387.03	10.18593
387.244	37.58533
387.458	-4.56592
387.672	18.61609
387.887	-40.38689
388.101	56.55646
388.315	62.88058
388.529	-6.67324
388.743	5.97099
388.957	-40.38689
389.171	-46.70749
389.385	39.69314
389.599	12.29343
389.813	39.69314
390.027	3.86356
390.241	48.12461
390.455	-61.45468
390.669	20.72369
390.883	-29.85205
391.097	-10.88778
391.311	41.80097
391.525	37.58533
391.738	-2.45859
391.952	5.97099
392.166	31.26204
392.38	16.50851
392.594	33.36978
392.808	22.83131
393.022	35.47754
393.236	43.90883
393.449	-23.53085
393.663	73.42125
393.877	58.66448
394.091	-12.99502
394.305	-44.60065
394.518	35.47754
394.732	52.34049
394.946	31.26204
395.16	-6.67324
395.373	-10.88778
395.587	3.86356
395.801	-31.95906
396.015	29.15432
396.228	18.61609
396.442	-23.53085
396.656	31.26204
396.869	1.75615
397.083	62.88058
397.297	10.18593
397.51	1.75615
397.724	46.01671
397.938	79.74592
398.151	18.61609
398.365	35.47754
398.578	52.34049
398.792	-8.78052
399.005	52.34049
399.219	18.61609
399.433	-55.13461
399.646	-38.27997
399.86	-40.38689
400.073	111.37229
400.287	3.86356
400.5	18.61609
400.714	35.47754
400.927	56.55646
401.141	1.75615
401.354	-6.67324
401.567	-40.38689
401.781	43.90883
401.994	-6.67324
402.208	48.12461
402.421	20.72369
402.635	43.90883
402.848	39.69314
403.061	-6.67324
403.275	60.77252
403.488	48.12461
403.701	73.42125
403.915	-17.20943
404.128	69.20492
404.341	52.34049
404.555	-31.95906
404.768	75.52945
404.981	8.07845
405.195	52.34049
405.408	86.0708
405.621	56.55646
405.834	48.12461
406.048	35.47754
406.261	52.34049
406.474	35.47754
406.687	-15.10224
406.9	39.69314
407.114	24.93896
407.327	-36.17303
407.54	46.01671
407.753	88.17913
407.966	-27.74501
408.179	-19.31659
408.392	39.69314
408.605	60.77252
408.819	48.12461
409.032	-6.67324
409.245	-31.95906
409.458	-10.88778
409.671	37.58533
409.884	119.80683
410.097	39.69314
410.31	69.20492
410.523	37.58533
410.736	-17.20943
410.949	56.55646
411.162	39.69314
411.375	35.47754
411.588	-10.88778
411.801	18.61609
412.014	20.72369
412.227	-65.66794
412.44	35.47754
412.653	-34.06606
412.865	3.86356
413.078	31.26204
413.291	20.72369
413.504	46.01671
413.717	60.77252
413.93	-10.88778
414.143	27.04663
414.356	-29.85205
414.568	-8.78052
414.781	43.90883
414.994	-2.45859
415.207	16.50851
415.42	37.58533
415.632	-0.35123
415.845	60.77252
416.058	88.17913
416.271	-4.56592
416.483	5.97099
416.696	-4.56592
416.909	48.12461
417.121	-19.31659
417.334	90.28749
417.547	31.26204
417.759	77.63768
417.972	-53.02787
418.185	79.74592
418.397	54.44846
418.61	48.12461
418.823	18.61609
419.035	-4.56592
419.248	-21.42373
419.46	16.50851
419.673	-15.10224
419.885	5.97099
420.098	-4.56592
420.311	90.28749
420.523	12.29343
420.736	56.55646
420.948	1.75615
421.161	-2.45859
421.373	60.77252
421.586	5.97099
421.798	52.34049
422.01	37.58533
422.223	77.63768
422.435	-25.63794
422.648	100.82962
422.86	71.31307
423.073	27.04663
423.285	96.6127
423.497	-42.49378
423.71	-15.10224
423.922	-2.45859
424.134	60.77252
424.347	37.58533
424.559	-34.06606
424.771	-19.31659
424.984	3.86356
425.196	27.04663
425.408	113.4809
425.621	107.15516
425.833	35.47754
426.045	1.75615
426.257	37.58533
426.47	-19.31659
426.682	50.23254
426.894	5.97099
427.106	35.47754
427.318	5.97099
427.531	56.55646
427.743	-17.20943
427.955	67.09678
428.167	102.93811
428.379	64.98867
428.591	1.75615
428.804	-17.20943
429.016	60.77252
429.228	10.18593
429.44	-15.10224
429.652	18.61609
429.864	-4.56592
430.076	56.55646
430.288	69.20492
430.5	29.15432
430.712	16.50851
430.924	54.44846
431.136	62.88058
431.348	22.83131
431.56	37.58533
431.772	43.90883
431.984	-2.45859
432.196	58.66448
432.408	-31.95906
432.62	-6.67324
432.832	-86.73269
433.044	12.29343
433.256	1.75615
433.468	-4.56592
433.679	35.47754
433.891	3.86356
434.103	24.93896
434.315	79.74592
434.527	50.23254
434.739	-12.99502
434.95	-61.45468
435.162	-29.85205
435.374	18.61609
435.586	10.18593
435.798	54.44846
436.009	1.75615
436.221	48.12461
436.433	64.98867
436.645	18.61609
436.856	-19.31659
437.068	102.93811
437.28	-36.17303
437.491	48.12461
437.703	29.15432
437.915	22.83131
438.126	105.04662
438.338	1.75615
438.55	54.44846
438.761	92.39587
438.973	64.98867
439.184	27.04663
439.396	31.26204
439.608	10.18593
439.819	-6.67324
440.031	52.34049
440.242	67.09678
440.454	24.93896
440.665	54.44846
440.877	20.72369
441.088	-29.85205
441.3	145.11251
441.511	54.44846
441.723	-8.78052
441.934	60.77252
442.146	64.98867
442.357	24.93896
442.569	16.50851
442.78	124.02423
442.991	-6.67324
443.203	24.93896
443.414	27.04663
443.626	105.04662
443.837	88.17913
444.048	43.90883
444.26	43.90883
444.471	69.20492
444.682	121.91552
444.894	46.01671
445.105	46.01671
445.316	94.50427
445.528	41.80097
445.739	-19.31659
445.95	62.88058
446.161	102.93811
446.373	147.22146
446.584	39.69314
446.795	27.04663
447.006	62.88058
447.217	81.85419
447.429	90.28749
447.64	35.47754
447.851	52.34049
448.062	18.61609
448.273	94.50427
448.484	-10.88778
448.695	-23.53085
448.907	35.47754
449.118	92.39587
449.329	43.90883
449.54	96.6127
449.751	96.6127
449.962	-6.67324
450.173	86.0708
450.384	20.72369
450.595	64.98867
450.806	136.67694
451.017	94.50427
451.228	48.12461
451.439	39.69314
451.65	71.31307
451.861	75.52945
452.072	90.28749
452.283	73.42125
452.494	98.72115
452.705	22.83131
452.915	64.98867
453.126	18.61609
453.337	-17.20943
453.548	88.17913
453.759	10.18593
453.97	94.50427
454.181	22.83131
454.391	50.23254
454.602	121.91552
454.813	43.90883
455.024	98.72115
455.235	94.50427
455.445	62.88058
455.656	18.61609
455.867	43.90883
456.078	41.80097
456.288	96.6127
456.499	22.83131
456.71	73.42125
456.921	-38.27997
457.131	94.50427
457.342	102.93811
457.553	77.63768
457.763	18.61609
457.974	119.80683
458.184	73.42125
458.395	27.04663
458.606	18.61609
458.816	96.6127
459.027	90.28749
459.237	105.04662
459.448	60.77252
459.659	73.42125
459.869	22.83131
460.08	24.93896
460.29	77.63768
460.501	111.37229
460.711	119.80683
460.922	73.42125
461.132	67.09678
461.343	105.04662
461.553	54.44846
461.764	96.6127
461.974	105.04662
462.184	107.15516
462.395	136.67694
462.605	113.4809
462.816	64.98867
463.026	134.5681
463.236	98.72115
463.447	81.85419
463.657	113.4809
463.867	35.47754
464.078	60.77252
464.288	56.55646
464.498	54.44846
464.709	149.33043
464.919	98.72115
465.129	105.04662
465.339	161.98467
465.55	197.84241
465.76	58.66448
465.97	138.7858
466.18	77.63768
466.391	121.91552
466.601	124.02423
466.811	77.63768
467.021	37.58533
467.231	180.96744
467.441	212.60907
467.651	170.42125
467.862	132.45929
468.072	132.45929
468.282	121.91552
468.492	113.4809
468.702	168.31207
468.912	252.69488
469.122	111.37229
469.332	172.53045
469.542	54.44846
469.752	128.24171
469.962	121.91552
470.172	212.60907
470.382	199.95188
470.592	204.17086
470.802	208.38993
471.012	206.28038
471.222	178.85816
471.432	170.42125
471.642	216.8283
471.852	240.03545
472.062	195.73297
472.272	237.92561
472.482	297.00827
472.691	254.80485
472.901	320.22329
473.111	204.17086
473.321	240.03545
473.531	381.43673
473.741	229.48645
473.95	301.22902
474.16	332.88694
474.37	385.65888
474.58	328.66565
474.79	417.32708
474.999	256.91485
475.209	322.33385
475.419	381.43673
475.628	465.89196
475.838	301.22902
476.048	362.43791
476.258	402.54813
476.467	506.01685
476.677	448.99889
476.886	413.10444
477.096	478.56239
477.306	423.66115
477.515	448.99889
477.725	503.90488
477.935	529.24946
478.144	563.04536
478.354	499.68099
478.563	550.37148
478.773	622.19641
478.982	622.19641
479.192	748.98054
479.401	694.03574
479.611	639.09854
479.82	626.42187
480.03	662.34023
480.239	651.77565
480.449	761.66112
480.658	795.47777
480.868	825.06936
481.077	932.88167
481.287	770.11505
481.496	983.6238
481.705	977.28082
481.915	1017.45403
482.124	865.2322
482.333	962.48076
482.543	1015.3396
482.752	1091.46294
482.961	987.85249
483.171	1061.85857
483.38	1023.79738
483.589	1169.70757
483.799	977.28082
484.008	1231.03822
484.217	1099.92152
484.426	1376.97168
484.636	1127.41242
484.845	1398.12207
485.054	1245.84257
485.263	1453.11335
485.472	1370.62658
485.682	1459.45851
485.891	1362.16646
486.1	1277.56664
486.309	1455.22841
486.518	1546.17526
486.727	1465.80367
486.936	1624.43017
487.146	1531.37006
487.355	1539.83018
487.564	1563.09543
487.773	1854.94276
487.982	1624.43017
488.191	1802.07688
488.4	1649.80956
488.609	1823.22358
488.818	1821.10893
489.027	1903.57668
489.236	1956.43638
489.445	1998.72145
489.654	1878.2028
489.863	2070.60006
490.072	1812.65028
490.281	2081.16976
490.49	1812.65028
490.698	2106.53629
490.907	2055.80217
491.116	2112.87775
491.325	2091.73927
491.534	2110.76394
491.743	2146.69771
491.952	2402.38898
492.16	2231.23848
492.369	2389.71339
492.578	2309.42617
492.787	2383.37545
492.996	2258.71126
493.204	2529.12363
493.413	2444.63824
493.622	2486.88317
493.831	2277.72998
494.039	2529.12363
494.248	2410.83917
494.457	2706.48151
494.665	2657.92792
494.874	2765.58091
495.083	2651.59435
495.291	2651.59435
495.5	2531.23553
495.709	2672.70582
495.917	2590.36406
496.126	2809.89856
496.335	2835.22021
496.543	2866.86943
496.752	3001.86953
496.96	2989.21585
497.169	2875.30869
497.377	2919.611
497.586	2790.90602
497.794	3090.42979
498.003	3065.12965
498.211	3145.23892
498.42	2885.85743
498.628	3202.14455
498.837	3060.91274
499.045	3141.02322
499.254	3406.48232
499.462	3358.04575
499.671	3277.99998
499.879	3379.10627
500.087	3208.46666
500.296	3387.52999
500.504	3187.39239
500.713	3440.17181
500.921	3288.53373
501.129	3349.62105
501.338	3157.88565
501.546	3522.27068
501.754	3288.53373
501.962	3663.24692
502.171	3507.53702
502.379	3547.5263
502.587	3425.43322
502.795	3776.80756
503.004	3452.8042
503.212	3659.0399
503.42	3537.00345
503.628	3810.44428
503.837	3726.34312
504.045	3810.44428
504.253	3608.5497
504.461	4020.55807
504.669	3621.17327
504.877	3995.3551
505.085	3818.85267
505.294	3995.3551
505.502	3749.47404
505.71	4049.95778
505.918	4020.55807
506.126	4091.95034
506.334	3806.23997
506.542	4190.59999
506.75	3944.94035
506.958	3936.53675
507.166	3995.3551
507.374	4165.41726
507.582	3913.4252
507.79	4213.68148
507.998	3970.14919
508.206	4270.32514
508.414	4108.74504
508.622	4389.85477
508.83	4178.009
509.037	4412.91378
509.245	4171.71323
509.453	4379.37252
509.661	4381.46902
509.869	4492.55181
510.077	4339.53506
510.285	4419.20214
510.492	4333.24422
510.7	4490.45648
510.908	4318.56483
511.116	4561.68533
511.324	4469.50196
511.531	4456.92819
511.739	4448.54524
511.947	4469.50196
512.155	4308.07891
512.362	4630.79465
512.57	4350.01936
512.778	4798.23089
512.985	4676.854
513.193	4735.45924
513.401	4479.97949
513.608	4685.22725
513.816	4484.17035
514.024	4737.55195
514.231	4643.35737
514.439	4484.17035
514.646	4683.13397
514.854	4952.97996
515.061	4768.93999
515.269	4817.0584
515.477	4664.29343
515.684	4844.25044
515.892	4756.38539
516.099	4886.07682
516.307	4814.96655
516.514	5009.41118
516.722	4894.441
516.929	4975.97249
517.136	4881.89459
517.344	5105.51447
517.551	4789.86252
517.759	5090.89322
517.966	5138.9302
518.173	5026.12831
518.381	4946.70879
518.588	5201.56866
518.796	5184.86712
519.003	5276.7071
519.21	5266.27301
519.418	5078.35981
519.625	5293.40041
519.832	5268.35988
520.039	5287.14059
520.247	5397.69968
520.454	5276.7071
520.661	5572.79022
520.868	5303.83298
521.076	5570.70679
521.283	5305.91942
521.49	5453.99689
521.697	5372.6732
521.904	5681.0963
522.112	5535.2848
522.319	5535.2848
522.526	5670.68503
522.733	5749.79591
522.94	5618.61981
523.147	5610.288
523.354	5604.0389
523.561	5855.91749
523.768	5576.95702
523.975	5706.08095
524.183	5551.95482
524.39	5835.11418
524.597	5812.22781
524.804	5893.35751
525.011	5818.46983
525.218	6026.4157
525.425	6036.8068
525.632	5978.60903
525.838	5926.63111
526.045	5803.90478
526.252	6063.82092
526.459	6051.35336
526.666	5872.55844
526.873	5980.68784
527.08	5899.59677
527.287	6144.83943
527.494	6009.7887
527.701	6263.18684
527.907	6022.25909
528.114	6252.80854
528.321	6217.51792
528.528	6454.0434
528.735	6385.60669
528.941	6275.64004
529.148	6142.76248
529.355	6138.60851
529.562	6180.144
529.768	6510.01824
529.975	5976.53019
530.182	6126.14603
530.388	6022.25909
530.595	6532.81796
530.802	6350.34151
531.008	6742.03025
531.215	6441.60225
531.422	6592.91288
531.628	6410.4957
531.835	6478.9232
532.042	6516.23662
532.248	6694.40848
532.455	6437.45501
532.661	6748.24089
532.868	6559.75947
533.074	6971.68738
533.281	6675.77058
533.487	6646.77458
533.694	6626.06038
533.9	6808.26647
534.107	6721.32662
534.313	6963.4163
534.52	6791.70961
534.726	7103.97574
534.933	6992.3635
535.139	6988.22846
535.345	6777.22115
535.552	7145.29706
535.758	6758.5915
535.965	7000.63332
536.171	6996.49845
536.377	7128.7696
536.584	6977.89045
536.79	7025.44061
536.996	7205.19716
537.203	7031.64193
537.409	6948.94104
537.615	7163.88874
537.821	7029.57485
538.028	7537.41014
538.234	6996.49845
538.44	7273.33671
538.646	7232.04289
538.853	7250.6262
539.059	7155.62599
539.265	7421.92182
539.471	7275.40117
539.677	7134.96756
539.883	7118.43921
540.09	7438.4243
540.296	7388.91269
540.502	7640.4678
540.708	7500.29627
540.914	7580.70086
541.12	7386.84943
541.326	7755.8294
541.532	7438.4243
541.738	7582.76209
541.944	7584.82329
542.15	7611.61703
542.356	7665.19372
542.562	7825.83824
542.768	7646.64957
542.974	7939.03701
543.18	7764.06699
543.386	7883.47451
543.592	7838.19024
543.798	7879.35817
544.004	7887.59077
544.21	7895.82303
544.415	7673.43502
544.621	8204.29757
544.827	7733.1743
545.033	8027.49459
545.239	7751.71048
545.445	7961.66929
545.651	7998.69858
545.856	8126.19362
546.062	8126.19362
546.268	8087.13081
546.474	7959.61191
546.679	8109.747
546.885	8050.11722
547.091	8117.97047
547.297	7799.073
547.502	8031.60797
547.708	7969.89859
547.914	8179.63627
548.119	8243.33879
548.325	8210.46245
548.531	7986.35622
548.736	8370.68711
548.942	8113.85878
549.147	8068.62483
549.353	8263.88394
549.559	8450.75504
549.764	8169.35989
549.97	8364.52682
550.175	8263.88394
550.381	8479.49025
550.586	8360.41986
550.792	8684.63395
550.997	8506.1696
551.203	8641.56931
551.408	8715.38942
551.614	8627.21261
551.819	8313.18427
552.025	8619.00837
552.23	8502.06529
552.435	8842.46829
552.641	8838.37007
552.846	8842.46829
553.052	8758.44011
553.257	8865.00727
553.462	8577.98268
553.668	8826.07494
553.873	8473.33302
554.078	8778.93761
554.283	8727.69044
554.489	8989.95692
554.694	8854.76255
554.899	8768.68909
555.105	8840.41919
555.31	9073.90262
555.515	8979.71762
555.72	9094.37275
555.925	8996.10028
556.131	9127.12137
556.336	8760.48994
556.541	9090.27886
556.746	8891.64144
556.951	9073.90262
557.156	8858.86049
557.361	9131.21463
557.567	9008.38654
557.772	9215.11158
557.977	9071.85551
558.182	9004.29119
558.387	9041.14681
558.592	9560.63589
558.797	9133.26124
559.002	9241.7071
559.207	8987.90909
559.412	9298.98014
559.617	9022.71971
559.822	9274.43615
560.027	9174.18981
560.232	9380.77619
560.437	9301.02536
560.642	9303.07057
560.847	9444.15009
561.051	9489.11568
561.256	9317.38655
561.461	9554.50635
561.666	9376.68701
561.871	9311.25123
562.076	9415.53155
562.281	9507.50846
562.485	9497.29041
562.69	9570.85148
562.895	9376.68701
563.1	9390.99884
563.305	9554.50635
563.509	9609.66713
563.714	9360.32965
563.919	9885.30257
564.123	9438.01781
564.328	9499.33405
564.533	9309.20609
564.737	9544.29013
564.942	9658.68935
565.147	9803.66156
565.351	9660.73175
565.556	9683.19711
565.761	9435.97369
565.965	9801.62023
566.17	9689.3237
566.374	9793.45476
566.579	9505.46488
566.784	9677.07038
566.988	9572.89455
567.193	9995.48057
567.397	9850.60805
567.602	9960.79947
567.806	9681.15488
568.011	9773.04001
568.215	9897.54667
568.42	9917.95234
568.624	10046.47462
568.828	9819.99167
569.033	9883.26183
569.237	9895.50602
569.442	9915.91183
569.646	9683.19711
569.85	9909.79025
570.055	9926.11419
570.259	9997.5205
570.463	9973.04034
570.668	9917.95234
570.872	9856.73092
571.076	9795.49615
571.281	10009.7598
571.485	10146.39729
571.689	10309.46497
571.893	10219.78855
572.098	10270.74427
572.302	10287.04831
572.506	9981.20062
572.71	10113.77319
572.914	10229.98037
573.119	10042.39543
573.323	10409.30147
573.527	10099.49902
573.731	10360.40592
573.935	10287.04831
574.139	10262.59192
574.343	10132.12468
574.547	10629.23986
574.751	10085.22416
574.955	10354.29345
575.159	10272.78232
575.364	10513.1797
575.568	10158.63041
575.772	10291.12419
575.976	10498.92388
576.18	10368.55571
576.383	10234.05701
