Data from absorb_only_2.23.25_USB4F045381__25__0130.txt Node

Date: Sun Feb 23 19:16:32 EST 2025
User: ssocol
Spectrometer: USB4F04538
Trigger mode: 4
Integration Time (sec): 2.600000E-3
Scans to average: 1
Electric dark correction enabled: true
Nonlinearity correction enabled: true
Boxcar width: 0
XAxis mode: Wavelengths
Number of Pixels in Spectrum: 3648
>>>>>Begin Spectral Data<<<<<
345.52	1.93177
345.736	1.93177
345.952	1.93177
346.168	46.19237
346.384	-46.53192
346.6	-59.17246
346.816	52.51615
347.032	-6.49763
347.248	-50.74553
347.464	10.36155
347.68	18.79172
347.896	4.03918
348.112	-6.49763
348.328	8.25407
348.544	18.79172
348.76	1.93177
348.975	8.25407
349.191	60.94819
349.407	86.24649
349.623	16.68414
349.839	-54.95905
350.055	63.05626
350.27	20.89932
350.486	-17.03383
350.702	16.68414
350.918	-46.53192
351.133	10.36155
351.349	65.16435
351.565	60.94819
351.781	-38.10439
351.996	6.14661
352.212	6.14661
352.428	-4.39031
352.644	-0.17561
352.859	29.32996
353.075	10.36155
353.291	-8.60492
353.506	44.08449
353.722	-46.53192
353.938	-42.31821
354.153	29.32996
354.369	-10.71218
354.584	18.79172
354.8	-14.92664
355.016	-88.66349
355.231	-42.31821
355.447	-99.19478
355.662	-48.63874
355.878	-6.49763
356.093	14.57659
356.309	-31.78348
356.524	41.97663
356.74	-4.39031
356.955	-23.35526
357.171	-73.91861
357.386	39.86879
357.602	18.79172
357.817	12.46906
358.033	-2.28298
358.248	16.68414
358.464	6.14661
358.679	-44.42508
358.895	27.22227
359.11	-57.06577
359.325	65.16435
359.541	-73.91861
359.756	10.36155
359.972	4.03918
360.187	-44.42508
360.402	-63.38577
360.618	18.79172
360.833	-23.35526
361.048	10.36155
361.264	-10.71218
361.479	-48.63874
361.694	-23.35526
361.909	-12.81942
362.125	58.84015
362.34	-40.21131
362.555	10.36155
362.77	29.32996
362.986	-4.39031
363.201	-46.53192
363.416	-8.60492
363.631	-40.21131
363.847	39.86879
364.062	10.36155
364.277	-2.28298
364.492	-40.21131
364.707	12.46906
364.922	-78.13156
365.138	10.36155
365.353	46.19237
365.568	-38.10439
365.783	16.68414
365.998	18.79172
366.213	25.11459
366.428	1.93177
366.643	29.32996
366.858	-6.49763
367.073	-19.141
367.288	-38.10439
367.503	27.22227
367.718	14.57659
367.933	39.86879
368.148	27.22227
368.363	4.03918
368.578	31.43768
368.793	20.89932
369.008	10.36155
369.223	4.03918
369.438	12.46906
369.653	12.46906
369.868	-14.92664
370.083	-19.141
370.298	12.46906
370.513	56.73213
370.728	-71.81209
370.943	-48.63874
371.157	-12.81942
371.372	-12.81942
371.587	44.08449
371.802	-50.74553
372.017	6.14661
372.232	-61.27913
372.446	16.68414
372.661	77.81336
372.876	-8.60492
373.091	1.93177
373.306	18.79172
373.52	1.93177
373.735	-21.24814
373.95	25.11459
374.165	10.36155
374.379	1.93177
374.594	-0.17561
374.809	4.03918
375.023	-50.74553
375.238	-14.92664
375.453	-31.78348
375.667	-65.49239
375.882	-2.28298
376.097	46.19237
376.311	33.54542
376.526	67.27246
376.741	-4.39031
376.955	-4.39031
377.17	33.54542
377.384	-31.78348
377.599	41.97663
377.813	18.79172
378.028	27.22227
378.242	6.14661
378.457	1.93177
378.672	48.30027
378.886	41.97663
379.101	54.62413
379.315	86.24649
379.53	-67.59898
379.744	-27.56942
379.958	-25.46235
380.173	-44.42508
380.387	63.05626
380.602	-23.35526
380.816	14.57659
381.031	-23.35526
381.245	-29.67646
381.459	27.22227
381.674	10.36155
381.888	44.08449
382.103	-21.24814
382.317	-57.06577
382.531	12.46906
382.746	-17.03383
382.96	18.79172
383.174	-46.53192
383.388	10.36155
383.603	60.94819
383.817	27.22227
384.031	4.03918
384.246	63.05626
384.46	-29.67646
384.674	29.32996
384.888	-6.49763
385.103	18.79172
385.317	-8.60492
385.531	52.51615
385.745	18.79172
385.959	44.08449
386.174	35.65319
386.388	-23.35526
386.602	-0.17561
386.816	27.22227
387.03	-17.03383
387.244	27.22227
387.458	-6.49763
387.672	37.76098
387.887	-82.34441
388.101	35.65319
388.315	44.08449
388.529	88.35483
388.743	-48.63874
388.957	46.19237
389.171	-57.06577
389.385	-4.39031
389.599	-31.78348
389.813	18.79172
390.027	-27.56942
390.241	-14.92664
390.455	-10.71218
390.669	-0.17561
390.883	-52.8523
391.097	-88.66349
391.311	-33.89048
391.525	-14.92664
391.738	46.19237
391.952	33.54542
392.166	18.79172
392.38	-10.71218
392.594	39.86879
392.808	46.19237
393.022	52.51615
393.236	8.25407
393.449	-73.91861
393.663	35.65319
393.877	-6.49763
394.091	-19.141
394.305	-25.46235
394.518	-4.39031
394.732	-27.56942
394.946	10.36155
395.16	56.73213
395.373	-23.35526
395.587	37.76098
395.801	12.46906
396.015	-33.89048
396.228	56.73213
396.442	44.08449
396.656	-0.17561
396.869	-27.56942
397.083	-10.71218
397.297	-35.99745
397.51	10.36155
397.724	18.79172
397.938	-107.61934
398.151	-23.35526
398.365	-21.24814
398.578	44.08449
398.792	-4.39031
399.005	12.46906
399.219	-17.03383
399.433	1.93177
399.646	-0.17561
399.86	-23.35526
400.073	4.03918
400.287	-2.28298
400.5	-61.27913
400.714	1.93177
400.927	96.7884
401.141	54.62413
401.354	-27.56942
401.567	-57.06577
401.781	-52.8523
401.994	-14.92664
402.208	18.79172
402.421	31.43768
402.635	-48.63874
402.848	39.86879
403.061	-10.71218
403.275	77.81336
403.488	69.38059
403.701	-19.141
403.915	14.57659
404.128	39.86879
404.341	20.89932
404.555	16.68414
404.768	-6.49763
404.981	27.22227
405.195	-19.141
405.408	6.14661
405.621	54.62413
405.834	-6.49763
406.048	-6.49763
406.261	39.86879
406.474	10.36155
406.687	44.08449
406.9	39.86879
407.114	44.08449
407.327	18.79172
407.54	65.16435
407.753	14.57659
407.966	-147.63017
408.179	44.08449
408.392	27.22227
408.605	29.32996
408.819	18.79172
409.032	10.36155
409.245	82.02988
409.458	-31.78348
409.671	103.11382
409.884	6.14661
410.097	-27.56942
410.31	12.46906
410.523	46.19237
410.736	44.08449
410.949	20.89932
411.162	18.79172
411.375	86.24649
411.588	46.19237
411.801	-23.35526
412.014	37.76098
412.227	31.43768
412.44	54.62413
412.653	-31.78348
412.865	88.35483
413.078	-61.27913
413.291	-2.28298
413.504	105.22233
413.717	-19.141
413.93	39.86879
414.143	12.46906
414.356	52.51615
414.568	-6.49763
414.781	75.70514
414.994	54.62413
415.207	1.93177
415.42	-46.53192
415.632	31.43768
415.845	48.30027
416.058	-14.92664
416.271	8.25407
416.483	1.93177
416.696	-6.49763
416.909	12.46906
417.121	79.92161
417.334	63.05626
417.547	46.19237
417.759	-40.21131
417.972	35.65319
418.185	-40.21131
418.397	31.43768
418.61	69.38059
418.823	31.43768
419.035	92.57157
419.248	60.94819
419.46	-17.03383
419.673	94.67998
419.885	33.54542
420.098	69.38059
420.311	6.14661
420.523	44.08449
420.736	12.46906
420.948	10.36155
421.161	-10.71218
421.373	27.22227
421.586	10.36155
421.798	29.32996
422.01	-14.92664
422.223	-4.39031
422.435	14.57659
422.648	58.84015
422.86	73.59693
423.073	-14.92664
423.285	35.65319
423.497	-2.28298
423.71	82.02988
423.922	1.93177
424.134	16.68414
424.347	-14.92664
424.559	-12.81942
424.771	111.54801
424.984	31.43768
425.196	75.70514
425.408	52.51615
425.621	14.57659
425.833	-6.49763
426.045	109.43943
426.257	39.86879
426.47	77.81336
426.682	60.94819
426.894	23.00695
427.106	73.59693
427.318	14.57659
427.531	115.76524
427.743	48.30027
427.955	52.51615
428.167	-0.17561
428.379	54.62413
428.591	145.28826
428.804	63.05626
429.016	39.86879
429.228	63.05626
429.44	79.92161
429.652	-27.56942
429.864	109.43943
430.076	82.02988
430.288	20.89932
430.5	18.79172
430.712	29.32996
430.924	37.76098
431.136	90.46319
431.348	-31.78348
431.56	82.02988
431.772	20.89932
431.984	113.65661
432.196	29.32996
432.408	113.65661
432.62	27.22227
432.832	73.59693
433.044	52.51615
433.256	-8.60492
433.468	113.65661
433.679	128.41744
433.891	122.09124
434.103	4.03918
434.315	96.7884
434.527	153.72418
434.739	33.54542
434.95	39.86879
435.162	113.65661
435.374	73.59693
435.586	88.35483
435.798	58.84015
436.009	44.08449
436.221	111.54801
436.433	107.33087
436.645	128.41744
436.856	105.22233
437.068	39.86879
437.28	147.39721
437.491	128.41744
437.703	111.54801
437.915	46.19237
438.126	128.41744
438.338	77.81336
438.55	56.73213
438.761	54.62413
438.973	103.11382
439.184	134.74384
439.396	162.16043
439.608	105.22233
439.819	69.38059
440.031	138.96154
440.242	39.86879
440.454	79.92161
440.665	96.7884
440.877	117.87389
441.088	164.26954
441.3	130.52622
441.511	54.62413
441.723	90.46319
441.934	103.11382
442.146	145.28826
442.357	103.11382
442.569	119.98255
442.78	103.11382
442.991	126.30869
443.203	141.07043
443.414	52.51615
443.626	212.78487
443.837	128.41744
444.048	195.90876
444.26	202.23715
444.471	149.50617
444.682	183.25252
444.894	138.96154
445.105	138.96154
445.316	119.98255
445.528	195.90876
445.739	134.74384
445.95	132.63502
446.161	157.94226
446.373	155.83321
446.584	170.59702
446.795	242.32113
447.006	206.45618
447.217	153.72418
447.429	162.16043
447.64	198.0182
447.851	124.19996
448.062	149.50617
448.273	147.39721
448.484	122.09124
448.695	212.78487
448.907	189.58055
449.118	162.16043
449.329	145.28826
449.54	261.31072
449.751	164.26954
449.962	202.23715
450.173	244.431
450.384	200.12766
450.595	162.16043
450.806	295.07378
451.017	240.21127
451.228	174.81543
451.439	221.22341
451.65	257.09068
451.861	221.22341
452.072	223.33309
452.283	246.5409
452.494	282.41208
452.705	316.17809
452.915	250.76076
453.126	225.4428
453.337	187.47118
453.548	179.03394
453.759	305.62571
453.97	305.62571
454.181	244.431
454.391	271.86117
454.602	265.53084
454.813	265.53084
455.024	330.95217
455.235	295.07378
455.445	282.41208
455.656	333.06283
455.867	267.64093
456.078	368.94661
456.288	314.06758
456.499	392.16815
456.71	360.50292
456.921	425.9485
457.131	425.9485
457.342	271.86117
457.553	360.50292
457.763	400.61285
457.974	474.51483
458.184	392.16815
458.395	493.52124
458.606	364.72473
458.816	554.77208
459.027	552.65979
459.237	413.28038
459.448	504.08088
459.659	440.72869
459.869	499.85698
460.08	480.85017
460.29	618.14706
460.501	622.37247
460.711	601.24592
460.922	628.71068
461.132	654.06461
461.343	609.69639
461.553	611.80904
461.764	675.19421
461.974	592.79566
462.184	654.06461
462.395	637.1618
462.605	664.62926
462.816	677.30723
463.026	611.80904
463.236	696.32496
463.447	681.53331
463.657	715.34359
463.867	812.56317
464.078	827.35926
464.288	795.65391
464.498	947.85722
464.709	884.43395
464.919	793.54029
465.129	880.20598
465.339	949.97145
465.55	1047.23299
465.76	850.61115
465.97	935.17202
466.18	930.94368
466.391	1108.5564
466.601	935.17202
466.811	1201.6062
467.021	947.85722
467.231	1203.72105
467.441	1053.57658
467.651	1432.13909
467.862	1165.65421
468.072	1400.41337
468.282	1334.84747
468.492	1237.55917
468.702	1345.42254
468.912	1675.36484
469.122	1389.83816
469.332	1542.12146
469.542	1474.44013
469.752	1726.12166
469.962	1753.61414
470.172	1601.3417
470.382	1717.66231
470.592	1749.38456
470.802	1776.87652
471.012	1836.08759
471.222	2009.4685
471.432	2013.69681
471.642	1975.64116
471.852	2195.48643
472.062	2055.97834
472.272	2218.73435
472.482	2292.69789
472.691	2332.84475
472.901	2309.60225
473.111	2497.61971
473.321	2478.61055
473.531	2550.41812
473.741	2520.8519
473.95	2677.10388
474.16	2607.43216
474.37	2841.72614
474.58	2706.65741
474.79	2888.14295
474.999	2778.41958
475.209	2917.6773
475.419	3010.48075
475.628	3153.84578
475.838	3071.6306
476.048	3250.78583
476.258	3027.35097
476.467	3335.05269
476.677	3332.94635
476.886	3596.10079
477.096	3680.24954
477.306	3661.31871
477.515	3583.47588
477.725	3907.29672
477.935	3591.89257
478.144	3770.67533
478.354	3888.38493
478.563	4205.46336
478.773	3909.39793
478.982	4266.30465
479.192	4129.91145
479.401	4148.80199
479.611	4276.79271
479.82	4205.46336
480.03	4341.8067
480.239	4645.62555
480.449	4390.02946
480.658	4683.30841
480.868	4919.70555
481.077	4951.06379
481.287	4591.18192
481.496	4907.16081
481.705	4930.15888
481.915	5122.39712
482.124	4959.42512
482.333	5218.44265
482.543	5214.26779
482.752	5210.09283
482.961	5316.52514
483.171	5535.45846
483.38	5489.60818
483.589	5493.77686
483.799	5718.74548
484.008	5697.92661
484.217	5887.29136
484.426	6020.35395
484.636	5928.88379
484.845	5916.40705
485.054	6043.21436
485.263	6113.85581
485.472	6142.93556
485.682	6381.63105
485.891	6468.7298
486.1	6593.08554
486.309	6582.72574
486.518	6667.65905
486.727	6663.51686
486.936	6789.81237
487.146	6516.40935
487.355	6657.30341
487.564	6791.88208
487.773	6843.61739
487.982	6918.09126
488.191	7089.68337
488.4	7186.78159
488.609	7145.46921
488.818	6926.36432
489.027	7413.84198
489.236	7308.60155
489.445	7582.93386
489.654	7508.71623
489.863	7659.18423
490.072	7593.23966
490.281	7642.70013
490.49	7558.19773
490.698	7609.72785
490.907	7706.56848
491.116	7856.88837
491.325	7797.18558
491.534	7933.03561
491.743	8171.58648
491.952	7906.28439
492.16	8128.42066
492.369	8307.19351
492.578	8329.78636
492.787	8214.74351
492.996	8467.34666
493.204	8656.096
493.413	8608.92358
493.622	8711.45978
493.831	8647.89281
494.039	8811.90059
494.248	8623.28145
494.457	8940.97497
494.665	8828.29494
494.874	8955.3122
495.083	9131.38518
495.291	9131.38518
495.5	9014.70006
495.709	9117.05846
495.917	9016.74766
496.126	9344.14164
496.335	9391.16922
496.543	9456.58454
496.752	9342.09676
496.96	9352.32097
497.169	9468.84806
497.377	9585.32289
497.586	9503.59159
497.794	9669.07138
498.003	9842.61409
498.211	10368.72549
498.42	9775.25168
498.628	9950.76838
498.837	9928.32465
499.045	9997.69049
499.254	9838.53199
499.462	9963.00967
499.671	10232.18856
499.879	10193.45809
500.087	10087.43341
500.296	10270.91411
500.504	10158.80031
500.713	10401.32251
500.921	10495.02039
501.129	10378.91242
501.338	10270.91411
501.546	10743.39449
501.754	10517.42238
501.962	10631.44529
502.171	10574.43873
502.379	10674.19386
502.587	10694.54844
502.795	10879.72026
503.004	10417.61976
503.212	10948.88064
503.42	10893.96024
503.628	11068.86346
503.837	10826.82396
504.045	11223.36195
504.253	10938.71082
504.461	11247.75089
504.669	11174.57957
504.877	11511.87165
505.085	11416.40104
505.294	11471.24845
505.502	11383.89552
505.71	11339.19629
505.918	11068.86346
506.126	11576.86092
506.334	11135.95588
506.542	11613.4132
506.75	11355.45112
506.958	11580.92243
507.166	11550.46018
507.374	11773.80256
507.582	11680.41804
507.79	11698.6904
507.998	11889.49285
508.206	12059.9351
508.414	11812.36905
508.622	11905.72791
508.83	11733.20288
509.037	12082.25078
509.245	11753.50315
509.453	12141.0786
509.661	11905.72791
509.869	12205.98473
510.077	12090.36535
510.285	12232.35069
510.492	12039.6473
510.7	12368.2177
510.908	12281.02311
511.116	12633.78111
511.324	12248.57529
511.531	12506.0812
511.739	12297.24634
511.947	12609.45922
512.155	12410.79648
512.362	12473.64547
512.57	12832.37813
512.778	12493.918
512.985	12467.56359
513.193	12639.86145
513.401	12759.43054
513.608	13026.87094
513.816	13002.56194
514.024	12878.97979
514.231	13024.84522
514.439	12824.2732
514.646	12911.39666
514.854	12945.8381
515.061	12895.1884
515.269	13004.58771
515.477	13030.92237
515.684	13375.22618
515.892	12980.27805
516.099	13057.25619
516.307	13490.64189
516.514	13770.02118
516.722	13334.72639
516.929	13523.03707
517.136	13452.17138
517.344	13518.98772
517.551	13387.3758
517.759	13693.09695
517.966	13642.48639
518.173	13739.65689
518.381	13790.26366
518.588	13693.09695
518.796	13844.91689
519.003	13751.80268
519.21	13705.24318
519.418	13834.79608
519.625	13731.55962
519.832	14093.86797
520.039	14093.86797
520.247	14037.19949
520.454	14134.34438
520.661	14454.08071
520.868	13936.00105
521.076	14407.53946
521.283	14207.19977
521.49	14385.28032
521.697	14207.19977
521.904	14158.62981
522.112	14468.24529
522.319	14555.2548
522.526	14118.15392
522.733	14830.43446
522.94	14678.68311
523.147	14777.82782
523.354	14822.34116
523.561	14684.75326
523.768	14609.8875
523.975	14990.2753
524.183	14852.69097
524.39	14984.20544
524.597	14840.55106
524.804	14850.66766
525.011	15022.64781
525.218	14885.06396
525.425	14915.41351
525.632	14943.73966
525.838	14881.01734
526.045	15233.06818
526.252	14897.20379
526.459	15330.18549
526.666	15229.02164
526.873	15485.97946
527.08	15409.09379
527.287	15307.92939
527.494	15372.6745
527.701	15728.78265
527.907	15243.18455
528.114	15757.1105
528.321	15562.86595
528.528	15898.75296
528.735	15846.14225
528.941	15562.86595
529.148	15662.01061
529.355	15965.52932
529.562	15797.57921
529.768	15923.03511
529.975	15734.85289
530.182	16236.69809
530.388	15755.08708
530.595	16190.15216
530.802	15755.08708
531.008	16244.79313
531.215	16107.18116
531.422	16200.27076
531.628	16530.16248
531.835	16374.31769
532.042	16331.8166
532.248	16675.89893
532.455	16505.87418
532.661	16275.14977
532.868	16410.74786
533.074	16548.37891
533.281	16619.22226
533.487	16795.33076
533.694	16781.16044
533.9	16943.11424
534.107	16333.84044
534.313	16582.7882
534.52	16817.59864
534.726	17236.69907
534.933	16799.37944
535.139	17186.07678
535.345	17216.44994
535.552	16841.89122
535.758	17194.17623
535.965	17182.02707
536.171	17080.78814
536.377	17331.87396
536.584	17141.53065
536.79	17159.7539
536.996	17301.49828
537.203	17404.77837
537.409	17423.0051
537.615	17743.02743
537.821	17680.23181
538.028	17643.77131
538.234	17461.48456
538.44	17526.29465
538.646	17335.9241
538.853	17943.59018
539.059	17429.08073
539.265	17706.56507
539.471	17627.56698
539.677	17629.59251
539.883	17730.87319
540.09	17686.30867
540.296	18091.50186
540.502	18182.68985
540.708	18044.89749
540.914	18251.59236
541.12	18010.45201
541.326	18478.59591
541.532	18105.68617
541.738	18409.67911
541.944	18253.61897
542.15	18946.94391
542.356	18346.84702
542.562	18671.18117
542.768	18377.24919
542.974	18555.62582
543.18	18462.3798
543.386	19030.09278
543.592	18823.24711
543.798	18673.20857
544.004	18695.51023
544.21	18809.05335
544.415	18871.91293
544.621	18991.55953
544.827	18916.52528
545.033	19117.30502
545.239	18843.52426
545.445	19105.13542
545.651	19103.10717
545.856	19263.35171
546.062	19310.01
546.268	19192.35414
546.474	19070.65568
546.679	18963.16755
546.885	18900.30238
547.091	19141.64466
547.297	18807.02568
547.502	19009.81194
547.708	19255.23745
547.914	19092.96596
548.119	19401.30428
548.325	19500.72315
548.531	19097.02243
548.736	19636.67942
548.942	19182.21204
549.147	19360.72801
549.353	19224.80955
549.559	19474.34575
549.764	19168.01327
549.97	19431.73757
550.175	19314.06735
550.381	19715.82678
550.586	19799.03985
550.792	20008.11846
550.997	19947.21717
551.203	20272.06777
551.408	20284.25176
551.614	20211.15008
551.819	20231.45555
552.025	20454.8435
552.23	20316.74314
552.435	20452.81248
552.641	20515.7763
552.846	20257.8533
553.052	20249.73084
553.257	19906.61842
553.462	20351.26641
553.668	19957.36712
553.873	20400.00722
554.078	20475.15402
554.283	20495.46495
554.489	20686.40811
554.694	20676.25063
554.899	20330.95846
555.105	20519.83862
555.31	20950.53895
555.515	20702.6603
555.72	20749.3868
555.925	20812.36948
556.131	21281.81644
556.336	21218.80442
556.541	21381.42397
556.746	21135.47193
556.951	20747.35517
557.156	20820.49657
557.361	21058.24305
557.567	20911.93085
557.772	20826.59193
557.977	20893.64333
558.182	21039.95286
558.387	21178.15358
558.592	21509.50492
558.797	21277.75103
559.002	20883.48374
559.207	20747.35517
559.412	21344.83233
559.617	21176.12108
559.822	21474.94184
560.027	21603.0343
560.232	21651.83554
560.437	21456.6442
560.642	21470.87567
560.847	21605.06764
561.051	21718.94094
561.256	21470.87567
561.461	21676.23701
561.666	21777.91585
561.871	21739.27675
562.076	21200.51134
562.281	21609.13433
562.485	21505.43862
562.69	21584.73441
562.895	21389.55563
563.1	21779.94953
563.305	21592.86765
563.509	21914.18067
563.714	21889.77377
563.919	21769.78119
564.123	21757.57931
564.328	21666.06966
564.533	21653.86898
564.737	21598.96763
564.942	21960.96212
565.147	21981.30251
565.351	22217.27859
565.556	22117.59288
565.761	21869.4351
565.965	22123.69583
566.17	22268.14208
566.374	22225.4166
566.579	22382.08463
566.784	22247.79641
566.988	22447.19979
567.193	22333.25071
567.397	22150.14233
567.602	22498.07358
567.806	22044.36013
568.011	22390.22383
568.215	22489.93362
568.42	22605.9334
568.624	22557.08998
568.828	22481.79372
569.033	22593.72235
569.237	22707.69705
569.442	22689.37895
569.646	22349.52845
569.85	22603.89822
570.055	22927.53613
570.259	22538.77422
570.463	22528.59893
570.668	22624.25021
