Data from absorb_only_2.23.25_USB4F045381__6__0111.txt Node

Date: Sun Feb 23 19:13:02 EST 2025
User: ssocol
Spectrometer: USB4F04538
Trigger mode: 4
Integration Time (sec): 2.600000E-3
Scans to average: 1
Electric dark correction enabled: true
Nonlinearity correction enabled: true
Boxcar width: 0
XAxis mode: Wavelengths
Number of Pixels in Spectrum: 3648
>>>>>Begin Spectral Data<<<<<
345.52	18.44046
345.736	18.44046
345.952	18.44046
346.168	-67.95008
346.384	35.30189
346.6	-17.38502
346.816	-0.52684
347.032	-72.16318
347.248	75.35377
347.464	-46.88306
347.68	16.33288
347.896	1.58054
348.112	66.92111
348.328	31.08639
348.544	-15.27784
348.76	-42.66935
348.975	3.68794
349.191	43.73317
349.407	-15.27784
349.623	-34.24164
349.839	-51.09666
350.055	12.11781
350.27	54.2728
350.486	-15.27784
350.702	43.73317
350.918	-32.13465
351.133	7.90283
351.349	7.90283
351.565	24.76332
351.781	35.30189
351.996	-25.81353
352.212	-40.56246
352.428	24.76332
352.644	-8.95613
352.859	56.38079
353.075	79.57023
353.291	56.38079
353.506	35.30189
353.722	60.59685
353.938	18.44046
354.153	54.2728
354.369	14.22533
354.584	-6.84884
354.8	-19.49219
355.016	7.90283
355.231	-76.37618
355.447	-59.52357
355.662	12.11781
355.878	69.02924
356.093	-40.56246
356.309	50.05688
356.524	-4.74153
356.74	28.97868
356.955	5.79537
357.171	-48.98987
357.386	-8.95613
357.602	1.58054
357.817	-53.20343
358.033	-30.02763
358.248	26.87099
358.464	37.40968
358.679	-21.59933
358.895	-8.95613
359.11	12.11781
359.325	37.40968
359.541	41.62532
359.756	52.16483
359.972	96.437
360.187	-17.38502
360.402	28.97868
360.618	-34.24164
360.833	35.30189
361.048	12.11781
361.264	-42.66935
361.479	24.76332
361.694	-34.24164
361.909	16.33288
362.125	-65.84349
362.34	-51.09666
362.555	12.11781
362.77	41.62532
362.986	-67.95008
363.201	-13.17063
363.416	10.01031
363.631	-0.52684
363.847	22.65567
364.062	-55.31017
364.277	-34.24164
364.492	-6.84884
364.707	-15.27784
364.922	-25.81353
365.138	-15.27784
365.353	-8.95613
365.568	33.19413
365.783	3.68794
365.998	-6.84884
366.213	1.58054
366.428	12.11781
366.643	-82.69548
366.858	50.05688
367.073	-25.81353
367.288	-17.38502
367.503	3.68794
367.718	43.73317
367.933	-93.22713
368.148	102.7624
368.363	-8.95613
368.578	-63.73688
368.793	58.48881
369.008	7.90283
369.223	7.90283
369.438	-51.09666
369.653	54.2728
369.868	-27.92059
370.083	-15.27784
370.298	-27.92059
370.513	-8.95613
370.728	-40.56246
370.943	-17.38502
371.157	20.54805
371.372	3.68794
371.587	58.48881
371.802	-46.88306
372.017	-8.95613
372.232	7.90283
372.446	-0.52684
372.661	37.40968
372.876	-13.17063
373.091	-15.27784
373.306	-21.59933
373.52	-21.59933
373.735	-0.52684
373.95	96.437
374.165	58.48881
374.379	-17.38502
374.594	50.05688
374.809	52.16483
375.023	54.2728
375.238	50.05688
375.453	-21.59933
375.667	1.58054
375.882	-8.95613
376.097	-4.74153
376.311	12.11781
376.526	-34.24164
376.741	75.35377
376.955	106.97945
377.17	1.58054
377.384	60.59685
377.599	3.68794
377.813	7.90283
378.028	45.84105
378.242	-25.81353
378.457	54.2728
378.672	-19.49219
378.886	-17.38502
379.101	-30.02763
379.315	-19.49219
379.53	7.90283
379.744	41.62532
379.958	41.62532
380.173	73.24557
380.387	-8.95613
380.602	5.79537
380.816	35.30189
381.031	50.05688
381.245	-59.52357
381.459	-8.95613
381.674	45.84105
381.888	16.33288
382.103	28.97868
382.317	56.38079
382.531	35.30189
382.746	16.33288
382.96	18.44046
383.174	7.90283
383.388	-8.95613
383.603	-17.38502
383.817	142.82785
384.031	1.58054
384.246	3.68794
384.46	50.05688
384.674	66.92111
384.888	-17.38502
385.103	-0.52684
385.317	16.33288
385.531	100.65391
385.745	-2.6342
385.959	-25.81353
386.174	-15.27784
386.388	-17.38502
386.602	-40.56246
386.816	33.19413
387.03	12.11781
387.244	-0.52684
387.458	-38.45555
387.672	60.59685
387.887	41.62532
388.101	47.94895
388.315	12.11781
388.529	37.40968
388.743	-42.66935
388.957	100.65391
389.171	18.44046
389.385	-17.38502
389.599	18.44046
389.813	35.30189
390.027	-32.13465
390.241	-25.81353
390.455	77.46199
390.669	-11.06339
390.883	20.54805
391.097	-13.17063
391.311	-15.27784
391.525	75.35377
391.738	14.22533
391.952	37.40968
392.166	-4.74153
392.38	-17.38502
392.594	18.44046
392.808	-53.20343
393.022	50.05688
393.236	90.11179
393.449	-8.95613
393.663	52.16483
393.877	18.44046
394.091	33.19413
394.305	-51.09666
394.518	-13.17063
394.732	-15.27784
394.946	28.97868
395.16	7.90283
395.373	5.79537
395.587	18.44046
395.801	20.54805
396.015	52.16483
396.228	-6.84884
396.442	62.70491
396.656	79.57023
396.869	58.48881
397.083	-4.74153
397.297	3.68794
397.51	-13.17063
397.724	3.68794
397.938	26.87099
398.151	-40.56246
398.365	96.437
398.578	7.90283
398.792	69.02924
399.005	-0.52684
399.219	24.76332
399.433	43.73317
399.646	62.70491
399.86	-63.73688
400.073	26.87099
400.287	7.90283
400.5	5.79537
400.714	-17.38502
400.927	37.40968
401.141	50.05688
401.354	151.26366
401.567	50.05688
401.781	43.73317
401.994	24.76332
402.208	-2.6342
402.421	43.73317
402.635	-0.52684
402.848	-4.74153
403.061	1.58054
403.275	41.62532
403.488	-8.95613
403.701	71.13739
403.915	-13.17063
404.128	-0.52684
404.341	43.73317
404.555	-42.66935
404.768	-46.88306
404.981	37.40968
405.195	41.62532
405.408	100.65391
405.621	33.19413
405.834	75.35377
406.048	83.78679
406.261	22.65567
406.474	41.62532
406.687	7.90283
406.9	10.01031
407.114	83.78679
407.327	16.33288
407.54	24.76332
407.753	35.30189
407.966	22.65567
408.179	71.13739
408.392	12.11781
408.605	1.58054
408.819	16.33288
409.032	-55.31017
409.245	50.05688
409.458	54.2728
409.671	37.40968
409.884	83.78679
410.097	31.08639
410.31	-34.24164
410.523	16.33288
410.736	77.46199
410.949	83.78679
411.162	66.92111
411.375	88.00344
411.588	37.40968
411.801	39.51749
412.014	90.11179
412.227	35.30189
412.44	35.30189
412.653	52.16483
412.865	35.30189
413.078	50.05688
413.291	90.11179
413.504	47.94895
413.717	94.32857
413.93	14.22533
414.143	39.51749
414.356	92.22017
414.568	109.088
414.781	54.2728
414.994	62.70491
415.207	24.76332
415.42	104.87091
415.632	52.16483
415.845	33.19413
416.058	47.94895
416.271	14.22533
416.483	35.30189
416.696	52.16483
416.909	7.90283
417.121	41.62532
417.334	88.00344
417.547	92.22017
417.759	73.24557
417.972	125.95723
418.185	-30.02763
418.397	73.24557
418.61	41.62532
418.823	77.46199
419.035	111.19658
419.248	20.54805
419.46	62.70491
419.673	-17.38502
419.885	50.05688
420.098	50.05688
420.311	10.01031
420.523	62.70491
420.736	64.813
420.948	62.70491
421.161	92.22017
421.373	20.54805
421.586	12.11781
421.798	119.63111
422.01	33.19413
422.223	85.8951
422.435	75.35377
422.648	83.78679
422.86	94.32857
423.073	187.11962
423.285	98.54544
423.497	71.13739
423.71	41.62532
423.922	92.22017
424.134	12.11781
424.347	66.92111
424.559	3.68794
424.771	45.84105
424.984	79.57023
425.196	50.05688
425.408	33.19413
425.621	28.97868
425.833	14.22533
426.045	138.61006
426.257	121.73979
426.47	94.32857
426.682	96.437
426.894	111.19658
427.106	66.92111
427.318	109.088
427.531	136.50121
427.743	83.78679
427.955	28.97868
428.167	47.94895
428.379	185.01029
428.591	136.50121
428.804	50.05688
429.016	109.088
429.228	50.05688
429.44	113.30518
429.652	20.54805
429.864	115.4138
430.076	88.00344
430.288	41.62532
430.5	121.73979
430.712	210.32369
430.924	168.13631
431.136	121.73979
431.348	187.11962
431.56	147.04571
431.772	16.33288
431.984	58.48881
432.196	121.73979
432.408	130.17476
432.62	119.63111
432.832	176.57313
433.044	187.11962
433.256	100.65391
433.468	111.19658
433.679	159.69982
433.891	153.37267
434.103	121.73979
434.315	140.71894
434.527	58.48881
434.739	119.63111
434.95	119.63111
435.162	187.11962
435.374	172.35468
435.586	197.66663
435.798	111.19658
436.009	180.79167
436.221	170.24549
436.433	142.82785
436.645	69.02924
436.856	218.76214
437.068	144.93677
437.28	155.4817
437.491	176.57313
437.703	212.43327
437.915	172.35468
438.126	168.13631
438.338	170.24549
438.55	170.24549
438.761	189.22898
438.973	172.35468
439.184	252.51905
439.396	235.63997
439.608	197.66663
439.819	214.54287
440.031	151.26366
440.242	252.51905
440.454	180.79167
440.665	214.54287
440.877	237.74979
441.088	235.63997
441.3	193.44776
441.511	296.83241
441.723	248.29916
441.934	180.79167
442.146	263.0691
442.357	265.17916
442.569	248.29916
442.78	296.83241
442.991	225.09118
443.203	284.17061
443.414	254.62902
443.626	218.76214
443.837	176.57313
444.048	233.53017
444.26	235.63997
444.471	246.18925
444.682	252.51905
444.894	273.61962
445.105	269.39935
445.316	328.48976
445.528	336.93241
445.739	328.48976
445.95	322.15797
446.161	370.70575
446.373	286.28086
446.584	277.83996
446.795	425.5966
447.006	305.27397
447.217	256.73901
447.429	408.70593
447.64	263.0691
447.851	301.05315
448.062	315.82634
448.273	288.39113
448.484	343.26457
448.695	398.14978
448.907	341.15383
449.118	450.9345
449.329	233.53017
449.54	307.38441
449.751	442.48828
449.962	328.48976
450.173	410.8172
450.384	417.15113
450.595	516.40091
450.806	436.15378
451.017	472.05113
451.228	459.38097
451.439	482.61001
451.65	450.9345
451.861	410.8172
452.072	482.61001
452.283	450.9345
452.494	533.29774
452.705	417.15113
452.915	480.4982
453.126	552.30774
453.337	510.06483
453.548	512.17684
453.759	484.72183
453.97	550.19546
454.181	573.43126
454.391	493.16926
454.602	535.4099
454.813	611.45693
455.024	702.31221
455.235	501.61693
455.445	522.73711
455.656	634.69687
455.867	636.80966
456.078	567.09406
456.288	651.59957
456.499	531.18558
456.71	655.82537
456.921	611.45693
457.131	742.46427
457.342	685.40726
457.553	736.12421
457.763	632.58408
457.974	801.64253
458.184	786.84724
458.395	822.77947
458.606	810.0972
458.816	920.02061
459.027	947.50485
459.237	848.14499
459.448	945.39064
459.659	873.51177
459.869	1025.73564
460.08	1015.1634
460.29	1008.82012
460.501	1112.43331
460.711	1021.50672
460.922	905.22192
461.132	1116.66268
461.343	1065.91149
461.553	1036.30803
461.764	1065.91149
461.974	1116.66268
462.184	1182.22019
462.395	1158.9574
462.605	1258.35589
462.816	1385.25557
463.026	1230.86198
463.236	1376.79543
463.447	1370.45033
463.657	1260.47082
463.867	1613.67908
464.078	1374.68039
464.288	1569.26422
464.498	1681.35705
464.709	1643.2885
464.919	1476.20267
465.129	1672.89745
465.339	1605.21917
465.55	1666.55272
465.76	1622.13896
465.97	1666.55272
466.18	1715.19499
466.391	1956.26019
466.601	1784.98299
466.811	1871.683
467.021	1736.34329
467.231	2021.80098
467.441	1757.49123
467.651	2154.97625
467.862	2019.68685
468.072	2334.6055
468.282	2290.23262
468.492	2201.47463
468.702	2334.6055
468.912	2507.82796
469.122	2387.4247
469.332	2579.63011
469.542	2469.8097
469.752	2729.52447
469.962	2721.08143
470.172	2683.08515
470.382	2638.75093
470.592	2716.85983
470.802	2699.97291
471.012	2906.77805
471.222	2953.18506
471.432	3073.38758
471.642	3109.22773
471.852	3227.2565
472.062	3185.10924
472.272	3431.57441
472.482	3265.18335
472.691	3555.76888
472.901	3355.76409
473.111	3395.77794
473.321	3541.03726
473.531	3667.27858
473.741	3597.8542
473.95	3711.44696
474.16	3757.70949
474.37	4154.74866
474.58	4011.98239
474.79	4303.70961
474.999	4305.80689
475.209	3993.07969
475.419	4437.89139
475.628	4544.75334
475.838	4341.45722
476.048	4402.25805
476.258	4582.45558
476.467	4791.7803
476.677	4906.81234
476.886	4990.42848
477.096	5126.22596
477.306	5109.51771
477.515	4986.24855
477.725	5186.78091
477.935	5195.13178
478.144	5241.0549
478.354	5376.67071
478.563	5580.95011
478.773	5397.5259
478.982	5693.41555
479.192	5680.92278
479.401	5591.36647
479.611	5837.02125
479.82	5757.94795
480.03	6040.7899
480.239	6296.22055
480.449	6150.89707
480.658	6422.76613
480.868	6509.84551
481.077	6513.99112
481.287	6493.26212
481.496	6642.45931
481.705	6803.95493
481.915	7105.86983
482.124	7076.93988
482.333	6899.13079
482.543	6884.65061
482.752	7012.8651
482.961	6897.06226
483.171	7605.26243
483.38	7147.19074
483.589	7588.77388
483.799	7576.40657
484.008	7751.53886
484.217	7508.37257
484.426	7691.80502
484.636	7803.01938
484.845	7883.303
485.054	7570.22262
485.263	8121.91077
485.472	7996.47016
485.682	8156.85628
485.891	8352.03458
486.1	8101.35188
486.309	8378.72944
486.518	8347.92739
486.727	8676.26092
486.936	8764.41874
487.146	8460.847
487.355	8795.1635
487.564	9143.32348
487.773	9108.53024
487.982	8680.36203
488.191	9030.73908
488.4	8899.66524
488.609	9243.58232
488.818	9511.42527
489.027	9368.33807
489.236	9313.12593
489.445	9529.81648
489.654	9458.28784
489.863	9858.60177
490.072	9640.13685
490.281	9836.15073
490.49	9879.01025
490.698	9870.84704
490.907	9840.23287
491.116	10301.14383
491.325	10107.48584
491.534	10223.69546
491.743	10195.1569
491.952	10561.88241
492.16	10398.94575
492.369	10515.04649
492.578	10749.16058
492.787	10655.53443
492.996	10785.78999
493.204	11062.42467
493.413	10977.01568
493.622	11029.89021
493.831	10981.08321
494.039	11393.71516
494.248	11131.55118
494.457	11489.19084
494.665	11351.04883
494.874	11501.37769
495.083	11253.50917
495.291	11550.1217
495.5	11379.49354
495.709	11615.10536
495.917	11513.5642
496.126	11464.8161
496.335	11856.68289
496.543	11992.64421
496.752	11759.25474
496.96	12138.71209
497.169	12000.76016
497.377	12108.28457
497.586	12158.99616
497.794	12323.27016
498.003	12238.09696
498.211	12722.61624
498.42	12242.15311
498.628	12495.60735
498.837	12548.31276
499.045	12584.79862
499.254	12517.90632
499.462	12868.51155
499.671	13004.25009
499.879	13058.94423
500.087	12852.30238
500.296	12943.47452
500.504	13105.53273
500.713	13182.49957
500.921	13160.22038
501.129	12965.75943
501.338	13146.04243
501.546	13293.88743
501.754	13328.31378
501.962	13445.7595
502.171	13316.16344
502.379	13399.1878
502.587	13293.88743
502.795	13498.40332
503.004	13380.96352
503.212	13921.49542
503.42	13546.9954
503.628	13684.662
503.837	13567.24149
504.045	13966.02391
504.253	13795.99897
504.461	13769.6838
504.669	13789.92628
504.877	14291.85721
505.085	13947.80786
505.294	14437.55528
505.502	14206.86248
505.71	14603.48001
505.918	13933.63968
506.126	14508.37788
506.334	14059.12501
506.542	14569.08167
506.75	14615.62052
506.958	14813.91063
507.166	14583.24573
507.374	14563.01134
507.582	14627.76099
507.79	14593.36288
507.998	14674.29911
508.206	14830.09724
508.414	14957.56548
508.622	14951.49561
508.83	14741.07033
509.037	15054.68304
509.245	14826.05059
509.453	15457.31585
509.661	15208.45171
509.869	15301.52234
510.077	14961.61206
510.285	15414.82647
510.492	15242.84734
510.7	15586.80888
510.908	15085.03216
511.116	15271.17318
511.324	15273.19646
511.531	15291.40595
511.739	15511.94541
511.947	15752.72642
512.155	15447.19932
512.362	15621.20594
512.57	15297.47578
512.778	15734.51565
512.985	15900.43921
513.193	15882.22771
513.401	15991.4983
513.608	16163.5067
513.816	15949.00373
514.024	15817.47649
514.231	16232.31329
514.439	16181.72002
514.646	16319.33628
514.854	15880.20422
515.061	15787.12476
515.269	16323.38395
515.477	16133.15147
515.684	16284.93145
515.892	16422.55408
516.099	16479.22486
516.307	16594.59546
516.514	16463.03304
516.722	16740.3371
516.929	16703.90056
517.136	16677.58576
517.344	16618.88491
517.551	16705.92479
517.759	16764.62856
517.966	16892.16452
518.173	16835.48065
518.381	16871.92005
518.588	17041.98173
518.796	17161.44125
519.003	17094.62371
519.21	17080.45068
519.418	17027.8092
519.625	17064.25311
519.832	17321.41115
520.039	17339.63674
520.247	17402.41567
520.454	17404.44084
520.661	17710.27878
520.868	17370.01328
521.076	17685.97106
521.283	17523.93173
521.49	17752.81844
521.697	17611.02528
521.904	17852.08346
522.112	17671.79179
522.319	17886.52427
522.526	17807.51448
522.733	18137.7704
522.94	18141.82321
523.147	18040.50733
523.354	18591.77774
523.561	18366.77724
523.768	18253.2812
523.975	18401.23372
524.183	18279.62745
524.39	18563.39669
524.597	18370.83088
524.804	18241.12161
525.011	18504.60978
525.218	18557.31514
525.425	18541.09782
525.632	18599.88676
525.838	18589.7505
526.045	18745.85967
526.252	18865.49161
526.459	18705.30959
526.666	18297.86753
526.873	18790.46657
527.08	18650.56949
527.287	19198.10138
527.494	18926.32674
527.701	18942.55005
527.907	19396.90844
528.114	19242.72809
528.321	19396.90844
528.528	19465.8916
528.735	19839.29586
528.941	19650.54666
529.148	19319.81529
529.355	19940.78892
529.562	19585.60907
529.768	19786.52361
529.975	19133.19333
530.182	19445.60194
530.388	19551.11272
530.595	19871.77249
530.802	19439.51512
531.008	19910.3399
531.215	19841.32561
531.422	20196.59808
531.628	19969.20886
531.835	19843.35538
532.042	19879.89182
532.248	20243.30061
532.455	20129.59399
532.661	20476.84658
532.868	20359.05124
533.074	20342.80471
533.281	20371.23631
533.487	20657.62886
533.694	20442.3189
533.9	20763.26974
534.107	20623.09486
534.313	20862.82622
534.52	20842.50776
534.726	20820.15794
534.933	20619.03211
535.139	20860.79435
535.345	20690.13255
535.552	20749.0482
535.758	21181.87984
535.965	21588.46214
536.171	21383.11806
536.377	21263.18345
536.584	21338.39504
536.79	21202.20513
536.996	21364.82205
537.203	21364.82205
537.409	21395.31558
537.615	21316.03426
537.821	21360.75631
538.028	21830.45372
538.234	21555.92969
538.44	21734.87062
538.646	21777.57691
538.853	21887.4009
539.059	21921.97744
539.265	21816.2174
539.471	21903.67208
539.677	21576.26235
539.883	21765.37494
540.09	21675.8981
540.296	22174.21598
540.502	22288.14902
540.708	22273.90676
540.914	22713.46392
541.12	22269.83757
541.326	22487.55948
541.532	22296.28754
541.738	22509.94445
541.944	22121.32246
542.15	22532.32986
542.356	22542.50519
542.562	22919.05394
542.768	22656.47492
542.974	22662.58075
543.18	22587.27769
543.386	23033.0594
543.592	23012.70051
543.798	22800.98806
544.004	23039.16713
544.21	23593.05567
544.415	23320.15467
544.621	23971.94847
544.827	23191.87006
545.033	23460.67134
545.239	23481.03732
545.445	23749.89678
545.651	23658.23423
545.856	23511.58685
546.062	23682.67699
546.268	23413.83079
546.474	23436.23259
546.679	23185.76159
546.885	23252.95638
547.091	23169.47248
547.297	23000.48534
547.502	23615.46045
547.708	23409.75778
547.914	23601.20282
548.119	23715.268
548.325	23731.56379
548.531	23711.19408
548.736	23764.15594
548.942	23601.20282
549.147	23588.98212
549.353	23672.49246
549.559	23935.27702
549.764	23857.86257
549.97	23876.1972
550.175	24279.61676
550.381	24546.58375
550.586	23949.53803
550.792	24569.00284
550.997	24149.20665
551.203	24399.84827
551.408	24748.36634
551.614	24350.93943
551.819	24776.90319
552.025	24856.40118
552.23	24937.94131
552.435	24458.94846
552.641	25115.3038
552.846	24571.04095
553.052	24754.48134
553.257	25050.06503
553.462	24893.09377
553.668	25121.42005
553.873	24736.13641
554.078	25282.48849
554.283	25109.18757
554.489	25349.77422
554.694	25555.72345
554.899	25172.3896
555.105	25345.69623
555.31	25023.56243
555.515	25282.48849
555.72	25117.34255
555.925	25482.31341
556.131	25419.10132
556.336	25319.18951
556.541	25514.93977
556.746	25459.88309
556.951	25390.55458
557.156	25076.568
557.361	25616.90047
557.567	25828.9944
557.772	25427.25761
557.977	25537.37069
558.182	26128.81531
558.387	25623.01827
558.592	25967.68222
558.797	26037.02928
559.002	25884.0606
559.207	25537.37069
559.412	26053.34654
559.617	25567.95871
559.822	26524.55432
560.027	26163.49095
560.232	26287.91938
560.437	26055.3862
560.642	26393.99442
560.847	26453.15356
561.051	26083.9417
561.256	26432.7537
561.461	26381.75476
561.666	26375.63496
561.871	26396.03436
562.076	26400.11426
562.281	26846.90118
562.485	25916.69306
562.69	26361.35547
562.895	26218.56505
563.1	26591.8768
563.305	26308.31808
563.509	26740.80821
563.714	26618.39824
563.919	26885.6669
564.123	26483.75365
564.328	26789.7737
564.533	26926.47349
564.737	26546.99496
564.942	26857.10264
565.147	27293.75764
565.351	26814.25677
565.556	26691.84357
565.761	27010.12875
565.965	26938.71557
566.17	26759.17017
566.374	26836.69976
566.579	26991.7652
566.784	26952.99807
566.988	27140.71724
567.193	27193.7704
567.397	27063.17965
567.602	27146.83871
567.806	27067.26052
568.011	27263.14896
568.215	27410.07325
568.42	27383.54476
568.624	27589.65629
568.828	27683.53302
569.033	27508.02644
569.237	27636.59434
569.442	27665.16564
569.646	27306.00119
569.85	27391.70735
570.055	27771.28966
