Data from absorb_only_2.23.25_USB4F045381__56__0161.txt Node

Date: Sun Feb 23 19:23:00 EST 2025
User: ssocol
Spectrometer: USB4F04538
Trigger mode: 4
Integration Time (sec): 2.600000E-3
Scans to average: 1
Electric dark correction enabled: true
Nonlinearity correction enabled: true
Boxcar width: 0
XAxis mode: Wavelengths
Number of Pixels in Spectrum: 3648
>>>>>Begin Spectral Data<<<<<
345.52	65.69137
345.736	65.69137
345.952	65.69137
346.168	29.85689
346.384	0.35123
346.6	-79.71139
346.816	-27.04265
347.032	12.99594
347.248	-60.75247
347.464	19.31862
347.68	23.53386
347.896	8.78094
348.112	-1.75614
348.328	-1.75614
348.544	27.74919
348.76	8.78094
348.975	69.90763
349.191	40.39575
349.407	4.56604
349.623	6.67348
349.839	-1.75614
350.055	2.45862
350.27	-62.85911
350.486	-1.75614
350.702	53.04315
350.918	59.36716
351.133	31.96461
351.349	-27.04265
351.565	48.82725
351.781	0.35123
351.996	-52.32561
352.212	12.99594
352.428	-1.75614
352.644	-8.0781
352.859	36.18013
353.075	34.07236
353.291	-67.07234
353.506	23.53386
353.722	-8.0781
353.938	25.64151
354.153	-14.39983
354.369	-33.36373
354.584	23.53386
354.8	34.07236
355.016	44.61145
355.231	27.74919
355.447	-16.50703
355.662	6.67348
355.878	95.20708
356.093	0.35123
356.309	-43.89836
356.524	2.45862
356.74	-27.04265
356.955	27.74919
357.171	-18.61421
357.386	0.35123
357.602	0.35123
357.817	46.71934
358.033	76.23219
358.248	8.78094
358.464	-12.29261
358.679	15.10348
358.895	69.90763
359.11	25.64151
359.325	29.85689
359.541	-20.72135
359.756	-48.11204
359.972	19.31862
360.187	-8.0781
360.402	84.66525
360.618	50.93519
360.833	-60.75247
361.048	17.21104
361.264	-56.53909
361.479	40.39575
361.694	8.78094
361.909	-77.60495
362.125	48.82725
362.34	-39.68458
362.555	21.42623
362.77	-16.50703
362.986	74.12398
363.201	-16.50703
363.416	27.74919
363.631	-24.93558
363.847	25.64151
364.062	36.18013
364.277	34.07236
364.492	61.47521
364.707	-43.89836
364.922	15.10348
365.138	38.28793
365.353	-10.18537
365.568	10.88843
365.783	-16.50703
365.998	65.69137
366.213	-43.89836
366.428	-52.32561
366.643	2.45862
366.858	8.78094
367.073	55.15113
367.288	2.45862
367.503	36.18013
367.718	23.53386
367.933	-27.04265
368.148	44.61145
368.363	-31.25673
368.578	-35.47071
368.793	-35.47071
369.008	-1.75614
369.223	25.64151
369.438	36.18013
369.653	19.31862
369.868	31.96461
370.083	23.53386
370.298	-94.45578
370.513	29.85689
370.728	-69.17891
370.943	118.40105
371.157	46.71934
371.372	-10.18537
371.587	-35.47071
371.802	-50.21884
372.017	-18.61421
372.232	12.99594
372.446	-1.75614
372.661	6.67348
372.876	-56.53909
373.091	-16.50703
373.306	-56.53909
373.52	-50.21884
373.735	19.31862
373.95	-56.53909
374.165	10.88843
374.379	-8.0781
374.594	6.67348
374.809	10.88843
375.023	50.93519
375.238	2.45862
375.453	23.53386
375.667	19.31862
375.882	34.07236
376.097	65.69137
376.311	23.53386
376.526	15.10348
376.741	17.21104
376.955	-10.18537
377.17	19.31862
377.384	-39.68458
377.599	-1.75614
377.813	-39.68458
378.028	-22.82848
378.242	-24.93558
378.457	57.25913
378.672	-1.75614
378.886	53.04315
379.101	50.93519
379.315	-52.32561
379.53	-16.50703
379.744	19.31862
379.958	15.10348
380.173	-22.82848
380.387	84.66525
380.602	-10.18537
380.816	8.78094
381.031	10.88843
381.245	-1.75614
381.459	-22.82848
381.674	-39.68458
381.888	44.61145
382.103	8.78094
382.317	-54.43236
382.531	90.99028
382.746	0.35123
382.96	-39.68458
383.174	-24.93558
383.388	-69.17891
383.603	23.53386
383.817	-12.29261
384.031	-67.07234
384.246	-41.79148
384.46	-33.36373
384.674	69.90763
384.888	25.64151
385.103	76.23219
385.317	-27.04265
385.531	-10.18537
385.745	40.39575
385.959	-18.61421
386.174	6.67348
386.388	21.42623
386.602	-31.25673
386.816	27.74919
387.03	-18.61421
387.244	-31.25673
387.458	23.53386
387.672	-48.11204
387.887	-67.07234
388.101	-16.50703
388.315	6.67348
388.529	2.45862
388.743	2.45862
388.957	-8.0781
389.171	40.39575
389.385	-73.39198
389.599	74.12398
389.813	-18.61421
390.027	-43.89836
390.241	-27.04265
390.455	15.10348
390.669	31.96461
390.883	19.31862
391.097	23.53386
391.311	-50.21884
391.525	23.53386
391.738	53.04315
391.952	15.10348
392.166	23.53386
392.38	34.07236
392.594	-14.39983
392.808	44.61145
393.022	31.96461
393.236	-18.61421
393.449	57.25913
393.663	-10.18537
393.877	36.18013
394.091	29.85689
394.305	61.47521
394.518	53.04315
394.732	4.56604
394.946	-71.28546
395.16	67.79949
395.373	-33.36373
395.587	42.50359
395.801	67.79949
396.015	6.67348
396.228	57.25913
396.442	40.39575
396.656	-90.24323
396.869	-27.04265
397.083	8.78094
397.297	10.88843
397.51	2.45862
397.724	17.21104
397.938	48.82725
398.151	-3.86348
398.365	19.31862
398.578	27.74919
398.792	46.71934
399.005	-5.9708
399.219	-77.60495
399.433	2.45862
399.646	36.18013
399.86	-1.75614
400.073	-52.32561
400.287	44.61145
400.5	-50.21884
400.714	23.53386
400.927	25.64151
401.141	15.10348
401.354	-43.89836
401.567	46.71934
401.781	23.53386
401.994	-1.75614
402.208	-33.36373
402.421	-1.75614
402.635	-31.25673
402.848	65.69137
403.061	-64.96574
403.275	10.88843
403.488	15.10348
403.701	-69.17891
403.915	-10.18537
404.128	-10.18537
404.341	-5.9708
404.555	-8.0781
404.768	-33.36373
404.981	25.64151
405.195	74.12398
405.408	-10.18537
405.621	-14.39983
405.834	-3.86348
406.048	8.78094
406.261	-62.85911
406.474	120.50972
406.687	40.39575
406.9	-48.11204
407.114	53.04315
407.327	-81.81781
407.54	34.07236
407.753	48.82725
407.966	15.10348
408.179	50.93519
408.392	50.93519
408.605	-60.75247
408.819	38.28793
409.032	-8.0781
409.245	10.88843
409.458	25.64151
409.671	8.78094
409.884	-33.36373
410.097	50.93519
410.31	34.07236
410.523	15.10348
410.736	103.64094
410.949	-5.9708
411.162	-1.75614
411.375	36.18013
411.588	57.25913
411.801	0.35123
412.014	25.64151
412.227	15.10348
412.44	0.35123
412.653	40.39575
412.865	65.69137
413.078	8.78094
413.291	69.90763
413.504	-50.21884
413.717	-10.18537
413.93	-35.47071
414.143	34.07236
414.356	-39.68458
414.568	-8.0781
414.781	2.45862
414.994	78.34042
415.207	27.74919
415.42	63.58328
415.632	48.82725
415.845	23.53386
416.058	0.35123
416.271	12.99594
416.483	4.56604
416.696	141.59765
416.909	74.12398
417.121	74.12398
417.334	36.18013
417.547	36.18013
417.759	12.99594
417.972	40.39575
418.185	0.35123
418.397	48.82725
418.61	15.10348
418.823	65.69137
419.035	93.09867
419.248	-14.39983
419.46	-10.18537
419.673	0.35123
419.885	-37.57766
420.098	17.21104
420.311	126.83588
420.523	-1.75614
420.736	6.67348
420.948	48.82725
421.161	34.07236
421.373	50.93519
421.586	4.56604
421.798	46.71934
422.01	-8.0781
422.223	40.39575
422.435	-31.25673
422.648	-5.9708
422.86	-24.93558
423.073	-43.89836
423.285	15.10348
423.497	-10.18537
423.71	95.20708
423.922	84.66525
424.134	-10.18537
424.347	17.21104
424.559	59.36716
424.771	55.15113
424.984	-14.39983
425.196	23.53386
425.408	-27.04265
425.621	31.96461
425.833	44.61145
426.045	48.82725
426.257	15.10348
426.47	-35.47071
426.682	-27.04265
426.894	-10.18537
427.106	-8.0781
427.318	-27.04265
427.531	74.12398
427.743	6.67348
427.955	10.88843
428.167	-5.9708
428.379	-41.79148
428.591	-24.93558
428.804	74.12398
429.016	6.67348
429.228	44.61145
429.44	40.39575
429.652	-48.11204
429.864	34.07236
430.076	50.93519
430.288	27.74919
430.5	23.53386
430.712	-14.39983
430.924	63.58328
431.136	38.28793
431.348	-5.9708
431.56	50.93519
431.772	12.99594
431.984	120.50972
432.196	4.56604
432.408	15.10348
432.62	-1.75614
432.832	84.66525
433.044	23.53386
433.256	6.67348
433.468	95.20708
433.679	0.35123
433.891	23.53386
434.103	44.61145
434.315	103.64094
434.527	50.93519
434.739	61.47521
434.95	50.93519
435.162	-1.75614
435.374	97.31551
435.586	40.39575
435.798	15.10348
436.009	25.64151
436.221	15.10348
436.433	31.96461
436.645	34.07236
436.856	55.15113
437.068	6.67348
437.28	19.31862
437.491	50.93519
437.703	19.31862
437.915	-20.72135
438.126	31.96461
438.338	-1.75614
438.55	63.58328
438.761	17.21104
438.973	-31.25673
439.184	-18.61421
439.396	25.64151
439.608	-35.47071
439.819	90.99028
440.031	116.2924
440.242	-14.39983
440.454	65.69137
440.665	-3.86348
440.877	65.69137
441.088	-1.75614
441.3	78.34042
441.511	-1.75614
441.723	36.18013
441.934	6.67348
442.146	10.88843
442.357	99.42397
442.569	74.12398
442.78	69.90763
442.991	29.85689
443.203	67.79949
443.414	-18.61421
443.626	84.66525
443.837	0.35123
444.048	0.35123
444.26	69.90763
444.471	57.25913
444.682	12.99594
444.894	27.74919
445.105	69.90763
445.316	34.07236
445.528	57.25913
445.739	12.99594
445.95	21.42623
446.161	99.42397
446.373	44.61145
446.584	48.82725
446.795	59.36716
447.006	-52.32561
447.217	-8.0781
447.429	42.50359
447.64	74.12398
447.851	93.09867
448.062	31.96461
448.273	44.61145
448.484	40.39575
448.695	120.50972
448.907	36.18013
449.118	36.18013
449.329	103.64094
449.54	118.40105
449.751	55.15113
449.962	78.34042
450.173	46.71934
450.384	31.96461
450.595	198.54556
450.806	50.93519
451.017	139.48876
451.228	74.12398
451.439	36.18013
451.65	65.69137
451.861	74.12398
452.072	40.39575
452.283	50.93519
452.494	169.01513
452.705	101.53244
452.915	74.12398
453.126	42.50359
453.337	23.53386
453.548	103.64094
453.759	84.66525
453.97	162.68771
454.181	34.07236
454.391	42.50359
454.602	103.64094
454.813	128.94464
455.024	55.15113
455.235	133.16222
455.445	109.96657
455.656	40.39575
455.867	78.34042
456.078	2.45862
456.288	101.53244
456.499	34.07236
456.71	103.64094
456.921	40.39575
457.131	17.21104
457.342	65.69137
457.553	27.74919
457.763	59.36716
457.974	147.92445
458.184	97.31551
458.395	97.31551
458.606	65.69137
458.816	114.18377
459.027	61.47521
459.237	99.42397
459.448	128.94464
459.659	145.81549
459.869	19.31862
460.08	82.55695
460.29	93.09867
460.501	84.66525
460.711	57.25913
460.922	103.64094
461.132	97.31551
461.343	82.55695
461.553	116.2924
461.764	118.40105
461.974	217.53151
462.184	158.46953
462.395	99.42397
462.605	116.2924
462.816	139.48876
463.026	200.65503
463.236	63.58328
463.447	97.31551
463.657	90.99028
463.867	179.56125
464.078	67.79949
464.288	152.14241
464.498	179.56125
464.709	225.97022
464.919	137.37989
465.129	141.59765
465.339	162.68771
465.55	82.55695
465.76	145.81549
465.97	141.59765
466.18	179.56125
466.391	107.85801
466.601	194.32669
466.811	179.56125
467.021	150.03342
467.231	204.87403
467.441	196.43612
467.651	236.51906
467.862	225.97022
468.072	247.06838
468.282	164.79683
468.492	221.75083
468.702	331.47983
468.912	280.82941
469.122	306.15332
469.332	259.7282
469.542	263.94829
469.752	285.04988
469.962	316.70572
470.172	297.71172
470.382	310.37423
470.592	285.04988
470.802	323.03738
471.012	329.36919
471.222	297.71172
471.432	449.70275
471.642	329.36919
471.852	403.25187
472.062	331.47983
472.272	344.14405
472.482	371.58532
472.691	437.03357
472.901	310.37423
473.111	394.80709
473.321	447.59118
473.531	411.69691
473.741	508.83283
473.95	521.50506
474.16	443.36809
474.37	532.06565
474.58	599.66148
474.79	622.90065
474.999	635.5772
475.209	635.5772
475.419	572.19902
475.628	578.53632
475.838	639.80281
476.048	671.49644
476.258	612.3372
476.467	690.51389
476.677	772.93306
476.886	884.96245
477.096	914.55914
477.306	671.49644
477.515	791.95509
477.725	830.00146
477.935	808.86421
478.144	914.55914
478.354	846.91191
478.563	1060.44886
478.773	920.90149
478.982	1016.04441
479.192	1130.23204
479.401	1121.7732
479.611	1020.27329
479.82	1235.97299
480.03	1233.85809
480.239	1187.33102
480.449	1157.72378
480.658	1284.61651
480.868	1147.14995
481.077	1367.10153
481.287	1358.64142
481.496	1316.3412
481.705	1464.39363
481.915	1400.94213
482.124	1360.75644
482.333	1529.96003
482.543	1388.25188
482.752	1483.42909
482.961	1532.07507
483.171	1902.16704
483.38	1671.66375
483.589	1815.46984
483.799	1707.61677
484.008	1927.54019
484.217	1817.5845
484.426	2012.1112
484.636	1868.33498
484.845	2009.99704
485.054	1874.67859
485.263	1978.28398
485.472	1834.50163
485.682	1959.25546
485.891	1967.71264
486.1	2128.37881
486.309	2098.78552
486.518	2187.56076
486.727	2136.83376
486.936	2297.4523
487.146	2170.65229
487.355	2470.6898
487.564	2217.1493
487.773	2341.82449
487.982	2422.10583
488.191	2451.67936
488.4	2527.71569
488.609	2515.04398
488.818	2643.85316
489.027	2800.05071
489.236	2567.84
489.445	2776.83676
489.654	2569.95169
489.863	2814.82237
490.072	2705.07425
490.281	2690.29773
490.49	3015.22559
490.698	3008.89911
490.907	2753.62116
491.116	3048.9645
491.325	3101.67357
491.534	3091.13254
491.743	2964.60993
491.952	3084.80773
492.16	3263.95432
492.369	3204.9544
492.578	3183.87985
492.787	3333.47294
492.996	3295.556
493.204	3487.18907
493.413	3554.54128
493.622	3554.54128
493.831	3312.40866
494.039	3550.33231
494.248	3520.86752
494.457	3586.10613
494.665	3609.25102
494.874	3720.73527
495.083	3565.06336
495.291	3735.45558
495.5	3647.11958
495.709	3588.2103
495.917	3668.15502
496.126	3727.04409
496.335	3827.96141
496.543	3874.20002
496.752	3647.11958
496.96	3983.45268
497.169	3874.20002
497.377	4017.05783
497.586	3802.73631
497.794	4266.82906
498.003	4010.75726
498.211	4180.80706
498.42	4000.25591
498.628	4040.15833
498.837	4044.35815
499.045	4147.22784
499.254	4168.21549
499.462	4107.34553
499.671	4161.91942
499.879	4302.4862
500.087	4390.55356
500.296	4182.90559
500.504	4264.73139
500.713	4459.72243
500.921	4468.10491
501.129	4451.33959
501.338	4262.6337
501.546	4656.61714
501.754	4371.6852
501.962	4470.20048
502.171	4327.65219
502.379	4528.86737
502.587	4461.81808
502.795	4633.58643
503.004	4514.20227
503.212	4757.08289
503.42	4554.00502
503.628	4842.85607
503.837	4528.86737
504.045	4918.13751
504.253	4824.03109
504.461	4985.02938
504.669	4675.45842
504.877	4949.49601
505.085	4947.4056
505.294	4951.58639
505.502	4989.20934
505.71	5227.31394
505.918	5014.28716
506.126	5114.56515
506.334	4851.22214
506.542	5193.91397
506.75	4920.22823
506.958	5206.43966
507.166	5304.52846
507.374	5173.03596
507.582	5400.48019
507.79	5373.36843
507.998	5147.97928
508.206	5325.39175
508.414	5200.17692
508.622	5406.73619
508.83	5277.40268
509.037	5467.19992
509.245	5281.57613
509.453	5654.71993
509.661	5306.61489
509.869	5625.56269
510.077	5239.83738
510.285	5377.53973
510.492	5298.26902
510.7	5731.75608
510.908	5465.11529
511.116	5400.48019
511.324	5606.81631
511.531	5787.95126
511.739	5594.31766
511.947	5785.87027
512.155	5523.47596
512.362	5681.79036
512.57	5758.81517
512.778	5675.54369
512.985	5891.97098
513.193	5573.48469
513.401	5438.013
513.608	5744.24539
513.816	5773.38379
514.024	5933.56235
514.231	5750.48972
514.439	5954.3545
514.646	5785.87027
514.854	6033.34317
515.061	5781.7082
515.269	5935.64167
515.477	6054.124
515.684	6006.32456
515.892	6029.18672
516.099	6241.04575
516.307	6157.99291
516.514	6255.57614
516.722	6083.21322
516.929	6097.7561
517.136	6006.32456
517.344	6209.90533
517.551	6218.20996
517.759	6270.10539
517.966	6398.74297
518.173	6288.78416
518.381	6155.9161
518.588	6388.3723
518.796	6446.44057
519.003	6489.97981
519.21	6404.9651
519.418	6724.08724
519.625	6263.87871
519.832	6489.97981
520.039	6469.24812
520.247	6529.36364
520.454	6521.073
520.661	6668.17682
520.868	6496.19887
521.076	6868.96249
521.283	6574.95552
521.49	6614.32132
521.697	6664.03464
521.904	6742.72033
522.112	6610.17794
522.319	6957.90204
522.526	6577.02761
522.733	6777.91111
522.94	6798.60848
523.147	6951.69832
523.354	6730.29847
523.561	6937.22216
523.768	6881.37518
523.975	7030.26388
524.183	6945.49439
524.39	7135.65621
524.597	7015.79372
524.804	7226.53637
525.011	7026.12966
525.218	7050.93363
525.425	7079.86752
525.632	7071.60114
525.838	7148.05149
526.045	7228.60133
526.252	7050.93363
526.459	7191.42867
526.666	7335.94889
526.873	7455.61291
527.08	7009.59188
527.287	7467.98778
527.494	7274.02487
527.701	7531.91223
527.907	7385.47392
528.114	7546.34392
528.321	7424.67233
528.528	7397.85321
528.735	7333.88507
528.941	7511.2937
529.148	7430.86084
529.355	7727.68177
529.562	7604.06019
529.768	7525.72689
529.975	7389.60044
530.182	7610.24308
530.388	7744.15891
530.595	7651.45748
530.802	7422.60945
531.008	7970.58435
531.215	7952.06802
531.422	7991.15612
531.628	7748.27798
531.835	7842.99359
532.042	7906.79887
532.248	8122.76734
532.455	7731.80118
532.661	8093.98445
532.868	7884.16056
533.074	8301.54493
533.281	7972.64162
533.487	8026.12344
533.694	8157.71271
533.9	8326.1922
534.107	7880.04424
534.313	8172.10031
534.52	8106.32046
534.726	8167.98967
534.933	8209.09249
535.139	8254.29645
535.345	8198.81753
535.552	8262.51432
535.758	8539.68525
535.965	8523.27006
536.171	8283.05763
536.377	8478.122
536.584	8215.25723
536.79	8291.27441
536.996	8361.10436
537.203	8595.07763
537.409	8490.43602
537.615	8584.82082
537.821	8590.97496
538.028	8435.01751
538.234	8636.1002
538.44	8865.69023
538.646	8566.35737
538.853	8853.39655
539.059	8549.94414
539.265	8814.46229
539.471	8793.96795
539.677	8726.32369
539.883	8644.30382
540.09	8716.07282
540.296	8742.72413
540.502	9033.63964
540.708	8796.01746
540.914	8935.34225
541.12	8918.9554
541.326	9199.4257
541.532	9176.91814
541.738	9004.97375
541.944	8869.78798
542.15	9189.19525
542.356	9115.5234
542.562	9248.52601
542.768	8855.44555
542.974	9205.56377
543.18	9101.19574
543.386	9475.49057
543.592	9467.31516
543.798	9455.05156
544.004	9205.56377
544.21	9653.24288
544.415	8984.49601
544.621	9510.2332
544.827	9060.25491
545.033	9606.26247
545.239	9422.34578
545.445	9612.39082
545.651	9410.08004
545.856	9622.60442
546.062	9264.89062
546.268	9510.2332
546.474	9553.14421
546.679	9604.21966
546.885	9348.74254
547.091	9485.70947
547.297	9469.35903
547.502	9475.49057
547.708	9475.49057
547.914	9718.5933
548.119	9630.77502
548.325	9645.07296
548.531	9405.99133
548.736	9440.74329
548.942	9477.53438
549.147	9610.34805
549.353	9698.17298
549.559	9865.57483
549.764	9563.36009
549.97	9800.25933
550.175	9965.55987
550.381	10226.58314
550.586	9822.71326
550.792	10212.31433
550.997	9871.69738
551.203	9975.76046
551.408	9788.01097
551.614	10246.96599
551.819	9902.30812
552.025	10108.33549
552.23	10124.64828
552.435	10365.15999
552.641	10332.55923
552.846	10344.78491
553.052	10409.98053
553.257	10081.82528
553.462	9973.72037
553.668	10108.33549
553.873	9971.68027
554.078	10611.59589
554.283	10359.04761
554.489	10619.73938
554.694	10522.00442
554.899	10391.64562
555.105	10420.16613
555.31	10658.41823
555.515	10196.0063
555.72	10289.76557
555.925	10359.04761
556.131	10723.55161
556.336	10242.88953
556.541	10674.70274
556.746	10383.49643
556.951	10550.51343
557.156	10503.67589
557.361	10674.70274
557.567	10538.29559
557.772	10880.22884
557.977	10454.79475
558.182	10585.12821
558.387	10452.75788
558.592	10719.48114
558.797	10656.38261
559.002	10825.29799
559.207	10636.02575
559.412	10680.80923
559.617	10467.01573
559.822	11055.13855
560.027	10750.00853
560.232	10959.55865
560.437	10676.73825
560.642	11083.60447
560.847	10821.2287
561.051	11118.16736
561.256	10988.03182
561.461	10878.19452
561.666	10922.94704
561.871	10947.35518
562.076	10951.42305
562.281	11374.24496
562.485	10837.50558
562.69	10874.12583
562.895	10916.84475
563.1	11061.23857
563.305	10811.05527
563.509	11093.77035
563.714	11168.98953
563.919	11122.23338
564.123	10994.13293
564.328	11093.77035
564.533	11024.63698
564.737	10906.67403
564.942	11063.27189
565.147	11138.49703
565.351	10943.28727
565.556	10971.76171
565.761	10886.33175
565.965	11162.89122
566.17	11337.67237
566.374	11550.9679
566.579	11297.03236
566.784	11105.96905
566.988	11175.08775
567.193	11485.9748
567.397	11382.37176
567.602	11514.41048
567.806	11195.41445
568.011	11355.95907
568.215	11825.05472
568.42	11546.90612
568.624	11386.4351
568.828	11622.04316
569.033	11427.06637
569.237	11691.077
569.442	11727.62015
569.646	11530.6586
569.85	11485.9748
570.055	11504.25509
570.259	11561.12221
570.463	11648.43969
570.668	11709.34893
570.872	11662.65256
571.076	11449.4119
571.281	11658.59179
571.485	11725.59005
571.689	11926.5283
571.893	11701.22816
572.098	11885.94137
572.302	11617.98202
572.506	11658.59179
572.71	11561.12221
572.914	12019.86594
573.119	11938.70374
573.323	11993.48963
573.527	11739.80056
573.731	11754.01065
573.935	11784.4594
574.139	12023.92372
574.343	11644.37878
574.547	12259.22243
574.751	11967.11197
574.955	12172.01138
