Data from absorb_only_2.23.25_USB4F045381__17__0122.txt Node

Date: Sun Feb 23 19:14:41 EST 2025
User: ssocol
Spectrometer: USB4F04538
Trigger mode: 4
Integration Time (sec): 2.600000E-3
Scans to average: 1
Electric dark correction enabled: true
Nonlinearity correction enabled: true
Boxcar width: 0
XAxis mode: Wavelengths
Number of Pixels in Spectrum: 3648
>>>>>Begin Spectral Data<<<<<
345.52	73.9483
345.736	73.9483
345.952	73.9483
346.168	-41.96706
346.384	-31.43231
346.6	-10.36097
346.816	2.283
347.032	42.32793
347.248	-23.00407
347.464	-1.93175
347.68	6.49786
347.896	19.14299
348.112	-14.57544
348.328	23.35822
348.544	-10.36097
348.76	10.7128
348.975	-44.07393
349.191	4.39042
349.407	-44.07393
349.623	23.35822
349.839	-23.00407
350.055	10.7128
350.27	25.46587
350.486	-73.56752
350.702	27.57355
350.918	17.0354
351.133	38.11228
351.349	31.78897
351.565	33.89672
351.781	-79.88693
351.996	57.08346
352.212	17.0354
352.428	14.92785
352.644	-8.2537
352.859	73.9483
353.075	17.0354
353.291	-50.3944
353.506	-48.28761
353.722	8.60532
353.938	-31.43231
354.153	14.92785
354.369	-25.11117
354.584	6.49786
354.8	54.97546
355.016	52.86748
355.231	71.84011
355.447	57.08346
355.662	36.00449
355.878	52.86748
356.093	-1.93175
356.309	27.57355
356.524	-27.21824
356.74	6.49786
356.955	-41.96706
357.171	54.97546
357.386	42.32793
357.602	126.66015
357.817	-1.93175
358.033	31.78897
358.248	48.65159
358.464	-27.21824
358.679	-29.32529
358.895	8.60532
359.11	-8.2537
359.325	23.35822
359.541	-1.93175
359.756	-16.68263
359.972	19.14299
360.187	48.65159
360.402	-52.50118
360.618	25.46587
360.833	-8.2537
361.048	-67.24789
361.264	2.283
361.479	40.22009
361.694	0.17561
361.909	48.65159
362.125	23.35822
362.34	27.57355
362.555	31.78897
362.77	8.60532
362.986	-8.2537
363.201	59.19149
363.416	40.22009
363.631	21.25059
363.847	33.89672
364.062	17.0354
364.277	73.9483
364.492	31.78897
364.707	65.5157
364.922	-23.00407
365.138	-35.64629
365.353	-33.53931
365.568	57.08346
365.783	0.17561
365.998	42.32793
366.213	82.38126
366.428	25.46587
366.643	4.39042
366.858	-48.28761
367.073	63.4076
367.288	27.57355
367.503	-25.11117
367.718	19.14299
367.933	33.89672
368.148	40.22009
368.363	38.11228
368.578	6.49786
368.793	6.49786
369.008	80.27299
369.223	-16.68263
369.438	8.60532
369.653	40.22009
369.868	10.7128
370.083	-10.36097
370.298	33.89672
370.513	59.19149
370.728	-6.14641
370.943	78.16474
371.157	-52.50118
371.372	95.03138
371.587	23.35822
371.802	78.16474
372.017	57.08346
372.232	40.22009
372.446	17.0354
372.661	54.97546
372.876	4.39042
373.091	92.92297
373.306	-63.03467
373.52	52.86748
373.735	65.5157
373.95	17.0354
374.165	14.92785
374.379	-41.96706
374.594	31.78897
374.809	-1.93175
375.023	10.7128
375.238	2.283
375.453	29.68125
375.667	-65.14129
375.882	-27.21824
376.097	40.22009
376.311	-81.99334
376.526	10.7128
376.741	31.78897
376.955	36.00449
377.17	14.92785
377.384	-48.28761
377.599	2.283
377.813	23.35822
378.028	99.24826
378.242	27.57355
378.457	-6.14641
378.672	69.73195
378.886	27.57355
379.101	-35.64629
379.315	2.283
379.53	14.92785
379.744	-1.93175
379.958	-39.86016
380.173	99.24826
380.387	2.283
380.602	25.46587
380.816	42.32793
381.031	-8.2537
381.245	-33.53931
381.459	19.14299
381.674	57.08346
381.888	27.57355
382.103	40.22009
382.317	33.89672
382.531	29.68125
382.746	27.57355
382.96	2.283
383.174	52.86748
383.388	2.283
383.603	0.17561
383.817	8.60532
384.031	57.08346
384.246	-98.84375
384.46	44.4358
384.674	10.7128
384.888	-6.14641
385.103	14.92785
385.317	101.35674
385.531	42.32793
385.745	19.14299
385.959	-44.07393
386.174	36.00449
386.388	-33.53931
386.602	-23.00407
386.816	2.283
387.03	6.49786
387.244	44.4358
387.458	6.49786
387.672	-25.11117
387.887	65.5157
388.101	10.7128
388.315	-27.21824
388.529	-14.57544
388.743	25.46587
388.957	33.89672
389.171	67.62381
389.385	33.89672
389.599	31.78897
389.813	29.68125
390.027	14.92785
390.241	27.57355
390.455	31.78897
390.669	31.78897
390.883	42.32793
391.097	-23.00407
391.311	59.19149
391.525	48.65159
391.738	17.0354
391.952	-18.7898
392.166	65.5157
392.38	105.57375
392.594	-1.93175
392.808	-27.21824
393.022	48.65159
393.236	-6.14641
393.449	25.46587
393.663	0.17561
393.877	-25.11117
394.091	71.84011
394.305	10.7128
394.518	2.283
394.732	8.60532
394.946	31.78897
395.16	52.86748
395.373	-23.00407
395.587	0.17561
395.801	65.5157
396.015	-29.32529
396.228	63.4076
396.442	-10.36097
396.656	44.4358
396.869	76.05651
397.083	116.11668
397.297	23.35822
397.51	50.75953
397.724	-16.68263
397.938	61.29953
398.151	-10.36097
398.365	-18.7898
398.578	33.89672
398.792	10.7128
399.005	80.27299
399.219	40.22009
399.433	40.22009
399.646	40.22009
399.86	86.59788
400.073	23.35822
400.287	14.92785
400.5	-18.7898
400.714	42.32793
400.927	65.5157
401.141	-6.14641
401.354	65.5157
401.567	0.17561
401.781	59.19149
401.994	-16.68263
402.208	21.25059
402.421	40.22009
402.635	-14.57544
402.848	19.14299
403.061	0.17561
403.275	124.55141
403.488	-48.28761
403.701	-94.6313
403.915	38.11228
404.128	42.32793
404.341	33.89672
404.555	14.92785
404.768	57.08346
404.981	50.75953
405.195	52.86748
405.408	10.7128
405.621	10.7128
405.834	6.49786
406.048	25.46587
406.261	48.65159
406.474	4.39042
406.687	65.5157
406.9	-10.36097
407.114	95.03138
407.327	25.46587
407.54	-35.64629
407.753	61.29953
407.966	48.65159
408.179	67.62381
408.392	14.92785
408.605	10.7128
408.819	-6.14641
409.032	48.65159
409.245	25.46587
409.458	-25.11117
409.671	8.60532
409.884	65.5157
410.097	17.0354
410.31	82.38126
410.523	82.38126
410.736	-1.93175
410.949	6.49786
411.162	44.4358
411.375	67.62381
411.588	50.75953
411.801	40.22009
412.014	-1.93175
412.227	67.62381
412.44	-18.7898
412.653	29.68125
412.865	50.75953
413.078	-1.93175
413.291	107.68229
413.504	17.0354
413.717	107.68229
413.93	31.78897
414.143	42.32793
414.356	42.32793
414.568	50.75953
414.781	14.92785
414.994	-31.43231
415.207	19.14299
415.42	69.73195
415.632	67.62381
415.845	33.89672
416.058	0.17561
416.271	42.32793
416.483	76.05651
416.696	82.38126
416.909	6.49786
417.121	50.75953
417.334	6.49786
417.547	23.35822
417.759	40.22009
417.972	6.49786
418.185	99.24826
418.397	63.4076
418.61	2.283
418.823	50.75953
419.035	8.60532
419.248	67.62381
419.46	-10.36097
419.673	84.48956
419.885	21.25059
420.098	69.73195
420.311	40.22009
420.523	92.92297
420.736	143.53082
420.948	84.48956
421.161	27.57355
421.373	59.19149
421.586	2.283
421.798	78.16474
422.01	105.57375
422.223	109.79086
422.435	86.59788
422.648	82.38126
422.86	31.78897
423.073	59.19149
423.285	76.05651
423.497	78.16474
423.71	80.27299
423.922	99.24826
424.134	99.24826
424.347	2.283
424.559	14.92785
424.771	124.55141
424.984	71.84011
425.196	48.65159
425.408	69.73195
425.621	48.65159
425.833	61.29953
426.045	61.29953
426.257	33.89672
426.47	111.89944
426.682	25.46587
426.894	-10.36097
427.106	25.46587
427.318	46.54368
427.531	132.98649
427.743	103.46523
427.955	57.08346
428.167	82.38126
428.379	128.76891
428.591	73.9483
428.804	63.4076
429.016	46.54368
429.228	128.76891
429.44	67.62381
429.652	78.16474
429.864	59.19149
430.076	116.11668
430.288	187.82274
430.5	48.65159
430.712	76.05651
430.924	76.05651
431.136	42.32793
431.348	61.29953
431.56	143.53082
431.772	137.20416
431.984	65.5157
432.196	90.81458
432.408	61.29953
432.62	90.81458
432.832	126.66015
433.044	67.62381
433.256	2.283
433.468	95.03138
433.679	103.46523
433.891	21.25059
434.103	177.27622
434.315	111.89944
434.527	65.5157
434.739	116.11668
434.95	105.57375
435.162	92.92297
435.374	101.35674
435.586	141.42191
435.798	151.96666
436.009	166.73021
436.221	162.51195
436.433	137.20416
436.645	126.66015
436.856	149.85767
437.068	114.00805
437.28	109.79086
437.491	59.19149
437.703	126.66015
437.915	173.05775
438.126	154.07568
438.338	76.05651
438.55	137.20416
438.761	192.04149
438.973	145.63975
439.184	145.63975
439.396	139.31302
439.608	223.68471
439.819	141.42191
440.031	166.73021
440.242	141.42191
440.454	196.26033
440.665	166.73021
440.877	158.29377
441.088	132.98649
441.3	234.23344
441.511	211.02688
441.723	192.04149
441.934	198.36978
442.146	160.40285
442.357	160.40285
442.569	158.29377
442.78	158.29377
442.991	198.36978
443.203	208.91732
443.414	173.05775
443.626	145.63975
443.837	99.24826
444.048	200.47924
444.26	194.1509
444.471	234.23344
444.682	181.49477
444.894	192.04149
445.105	244.78265
445.316	242.67277
445.528	217.35571
445.739	204.69824
445.95	206.80777
446.161	149.85767
446.373	183.60407
446.584	230.01389
446.795	242.67277
447.006	297.53586
447.217	177.27622
447.429	213.13647
447.64	284.87402
447.851	238.45306
448.062	232.12365
448.273	286.98428
448.484	303.86702
448.695	314.41933
448.907	183.60407
449.118	270.10273
449.329	225.79441
449.54	310.19835
449.751	215.24608
449.962	225.79441
450.173	280.65356
450.384	295.42551
450.595	329.19331
450.806	301.75662
451.017	303.86702
451.228	265.88252
451.439	314.41933
451.65	373.52039
451.861	230.01389
452.072	337.63597
452.283	320.75093
452.494	282.76378
452.705	284.87402
452.915	386.18665
453.126	335.52528
453.337	392.52001
453.548	354.52214
453.759	356.63299
453.97	362.96564
454.181	371.40941
454.391	259.55236
454.602	403.07593
454.813	455.86158
455.024	441.0806
455.235	428.41181
455.445	360.85473
455.656	343.96815
455.867	398.85351
456.078	407.29842
456.288	500.20897
456.499	510.76883
456.71	411.52097
456.921	424.189
457.131	504.43287
457.342	500.20897
457.553	495.98513
457.763	428.41181
457.974	574.1354
458.184	377.74241
458.395	548.78728
458.606	546.67503
458.816	650.19098
459.027	664.98142
459.237	586.81018
459.448	631.17557
459.659	724.14881
459.869	664.98142
460.08	660.75553
460.29	683.99855
460.501	743.16873
460.711	732.602
460.922	677.6594
461.132	694.56402
461.343	741.05536
461.553	766.41643
461.764	893.24232
461.974	724.14881
462.184	681.88549
462.395	817.14286
462.605	781.21107
462.816	774.87045
463.026	827.71155
463.236	965.1236
463.447	842.5081
463.657	912.26887
463.867	1062.38721
464.078	1079.30388
464.288	979.92372
464.498	1041.24186
464.709	1134.28527
464.919	1034.89837
465.129	1123.71168
465.339	1311.93497
465.55	1201.95867
465.76	1096.22088
465.97	1214.64785
466.18	1166.00668
466.391	1343.66002
466.601	1172.35107
466.811	1377.50044
467.021	1366.92527
467.231	1495.94313
467.441	1345.77504
467.651	1519.2086
467.862	1443.06686
468.072	1648.22336
468.282	1639.76359
468.492	1711.67025
468.702	1753.9666
468.912	1804.72024
469.122	1764.54046
469.332	1747.62224
469.542	1910.44864
469.752	1908.3342
469.962	1891.41846
470.172	2077.47038
470.382	2056.33067
470.592	2035.19026
470.802	2090.15386
471.012	2157.79445
471.222	2432.49201
471.432	2375.4529
471.642	2318.40636
471.852	2485.29906
472.062	2407.14224
472.272	2683.78883
472.482	2487.4112
472.691	2778.77132
472.901	2519.09193
473.111	2761.8875
473.321	2871.61654
473.531	2955.99737
473.741	2812.53633
473.95	2820.97703
474.16	2761.8875
474.37	3124.68676
474.58	3198.45659
474.79	3390.16234
474.999	3219.53
475.209	3297.48709
475.419	3322.76548
475.628	3743.69153
475.838	3297.48709
476.048	3554.3659
476.258	3762.61557
476.467	3895.03926
476.677	3871.92334
476.886	4155.44826
477.096	3989.57901
477.306	4060.98163
477.515	4205.81308
477.725	4050.48274
477.935	4264.55659
478.144	4283.43487
478.354	4210.00959
478.563	4576.87052
478.773	4507.7423
478.982	4549.64107
479.192	4712.9611
479.401	4694.12345
479.611	4794.56977
479.82	4765.27832
480.03	5110.21392
480.239	5110.21392
480.449	4817.58137
480.658	5343.99288
480.868	5387.79377
481.077	5431.58431
481.287	5475.36449
481.496	5835.63429
481.705	5562.8937
481.915	5696.1916
482.124	5548.30838
482.333	5852.27708
482.543	5696.1916
482.752	5893.87746
482.961	5977.0499
483.171	6188.96909
483.38	5950.023
483.589	6124.58816
483.799	6319.73832
484.008	6527.11829
484.217	6330.11285
484.426	6481.51465
484.636	6622.43516
484.845	6593.43086
485.054	6715.63272
485.263	6790.15733
485.472	6529.19092
485.682	7048.69452
485.891	6848.10044
486.1	7034.22575
486.309	7133.41809
486.518	6972.20431
486.727	7129.2861
486.936	7253.20707
487.146	7494.62548
487.355	7500.81179
487.564	7294.49638
487.773	7560.60277
487.982	7653.34627
488.191	7795.46972
488.4	7628.61888
488.609	7781.05596
488.818	7760.46308
489.027	8159.59686
489.236	7999.21283
489.445	8239.74319
489.654	8079.42018
489.863	8422.52931
490.072	8056.80072
490.281	8541.56608
490.49	8215.08599
490.698	8441.00475
490.907	8683.09607
491.116	8642.08204
491.325	8545.66966
491.534	8888.05625
491.743	8752.80298
491.952	8931.07495
492.16	8935.17156
492.369	9221.76073
492.578	9168.56254
492.787	9033.46902
492.996	9178.79385
493.204	9356.75133
493.413	9618.3488
493.622	9346.5273
493.831	9305.62705
494.039	9510.06291
494.248	9528.45421
494.457	9626.51953
494.665	9708.21316
494.874	9789.88228
495.083	9706.17112
495.291	9604.04942
495.5	9793.9651
495.709	10153.02362
495.917	9787.84085
496.126	10008.22992
496.335	10220.29815
496.543	10521.83472
496.752	10291.63367
496.96	10395.55036
497.169	10201.95204
497.377	10307.93662
497.586	10566.63351
497.794	10621.60556
498.003	10521.83472
498.211	10656.21298
498.42	10995.99714
498.628	10641.9633
498.837	10589.03062
499.045	10924.81161
499.254	10802.74676
499.462	10798.67721
499.671	11040.73534
499.879	11380.17077
500.087	10998.03081
500.296	11022.434
500.504	11081.40182
500.713	11268.41258
500.921	11154.59059
501.129	11237.92775
501.338	11065.13575
501.546	11254.18661
501.754	11524.39637
501.962	11634.05715
502.171	11514.24122
502.379	11782.26039
502.587	11577.19938
502.795	11597.50655
503.004	11248.08962
503.212	11684.81701
503.42	11806.61811
503.628	11717.30038
503.837	11678.72612
504.045	11828.94493
504.253	12198.20992
504.461	12123.16046
504.669	12023.75464
504.877	12240.80106
505.085	12031.8701
505.294	12267.16541
505.502	12181.98387
505.71	12295.55644
505.918	11881.71337
506.126	12548.98844
506.334	12315.8349
506.542	12711.13249
506.75	12429.38152
506.958	12551.01549
507.166	12717.21214
507.374	12765.84752
507.582	12670.6001
507.79	12267.16541
507.998	12850.9516
508.206	12800.2956
508.414	12885.39574
508.622	12968.46059
508.83	12814.47963
509.037	13296.58758
509.245	12857.03009
509.453	13243.9333
509.661	13063.67071
509.869	13272.28597
510.077	13077.85001
510.285	13199.37738
510.492	12915.78634
510.7	13515.27581
510.908	13363.41391
511.116	13231.7819
511.324	13108.23343
511.531	13389.73821
511.739	13207.47862
511.947	13412.01209
512.155	13582.08839
512.362	13614.481
512.57	13215.57978
512.778	13484.90515
512.985	13604.3584
513.193	13537.54711
513.401	13592.21118
513.608	13559.81797
513.816	13701.53184
514.024	13742.01858
514.231	13656.99496
514.439	13796.67371
514.646	14045.63241
514.854	13877.64036
515.061	13608.40745
515.269	13988.96234
515.477	13964.67458
515.684	14021.34547
515.892	14100.27679
516.099	14199.44214
516.307	14341.09872
516.514	14359.31107
516.722	14458.46499
516.929	14092.18144
517.136	14296.57904
517.344	14422.04153
517.551	14513.09933
517.759	14523.21669
517.966	14719.48782
518.173	14521.19322
518.381	14685.09049
518.588	14895.51771
518.796	14608.20132
519.003	14689.13725
519.21	14887.42448
519.418	14855.05151
519.625	15014.8919
519.832	15081.66004
520.039	15213.17268
520.247	15045.24109
520.454	15138.31166
520.661	15368.96514
520.868	15253.63813
521.076	15397.29123
521.283	15091.77641
521.49	15350.75555
521.697	15196.98651
521.904	15217.21922
522.112	15370.98843
522.319	15544.99313
522.526	15360.87198
522.733	15613.78695
522.94	15526.78314
523.147	15534.87646
523.354	15474.17678
523.561	15931.46645
523.768	15939.56057
523.975	15814.10406
524.183	15793.86956
524.39	16026.57365
524.597	16109.54209
524.804	15905.16073
525.011	15961.81949
525.218	15957.7724
525.425	16247.15419
525.632	16109.54209
525.838	16340.24929
526.045	16042.76241
526.252	16188.46573
526.459	16591.22195
526.666	16141.92072
526.873	16453.58788
527.08	16162.15757
527.287	16647.89773
527.494	16494.06747
527.701	16753.15755
527.907	16494.06747
528.114	16975.84441
528.321	16690.40574
528.528	17060.87863
528.735	16747.08469
528.941	16876.64374
529.148	16941.42714
529.355	17028.48408
529.562	16722.79349
529.768	17149.96731
529.975	16607.41485
530.182	17052.77993
530.388	16939.40262
530.595	17255.26104
530.802	17012.28707
531.008	17577.26738
531.215	17459.79684
531.422	17575.24193
531.628	17668.41579
531.835	17249.18618
532.042	17506.37871
532.248	17804.13811
532.455	17210.71274
532.661	17557.01307
532.868	17463.84738
533.074	17708.92834
533.281	17692.72316
533.487	17800.08647
533.694	17607.64945
533.9	17704.87702
534.107	17935.82365
534.313	18069.55029
534.52	18087.78695
534.726	18221.53143
534.933	17911.51137
535.139	18018.89444
535.345	18073.60285
535.552	18397.85559
535.758	18685.71096
535.965	18722.20527
536.171	18466.77164
536.377	18935.11433
536.584	18478.93375
536.79	18442.44782
536.996	18760.72842
537.203	18385.69439
537.409	18521.50224
537.615	18748.56306
537.821	18543.80069
538.028	19026.3746
538.234	18426.23225
538.44	18722.20527
538.646	18523.52935
538.853	18856.02869
539.059	18787.08719
539.265	18906.72391
539.471	18910.77964
539.677	18835.7513
539.883	18839.80675
540.09	18959.44961
540.296	18995.9536
540.502	19316.43414
540.708	19079.10649
540.914	19598.46097
541.12	19578.16858
541.326	19215.0052
541.532	19586.28549
541.738	19789.22981
541.944	19543.67249
542.15	19868.38946
542.356	19969.88554
542.562	19904.92684
542.768	19561.93498
542.974	19708.04706
543.18	19588.31472
543.386	19748.6376
543.592	20122.14937
543.798	20168.84836
544.004	20101.84616
544.21	20183.06153
544.415	20237.88571
544.621	20239.91629
544.827	20223.67174
545.033	20473.46146
545.239	20126.21007
545.445	20731.44086
545.651	20300.83577
545.856	20331.29692
546.062	20711.12508
546.268	20337.38927
546.474	20475.49253
546.679	19975.97564
546.885	19984.09583
547.091	20363.78986
547.297	20016.57727
547.502	20440.9649
547.708	20380.03673
547.914	20471.43039
548.119	20725.34608
548.325	20587.20786
548.531	20315.05085
548.736	20788.32724
548.942	20369.88241
549.147	20116.05836
549.353	20662.36891
549.559	20786.29552
549.764	20918.36543
549.97	20682.68369
550.175	20772.07365
550.381	21115.4867
550.586	20778.16872
550.792	20969.16619
550.997	20865.53538
551.203	21377.69699
551.408	21292.31882
551.614	21335.00702
551.819	21452.91694
552.025	21398.02616
552.23	21810.79409
552.435	21436.65271
552.641	21603.37319
552.846	21422.42171
553.052	21666.40857
553.257	21564.74046
553.462	21591.17322
553.668	21715.21275
553.873	21812.82783
554.078	21999.9482
554.283	21951.13107
554.489	21859.60488
554.694	22006.0505
554.899	21690.81038
555.105	22272.55036
555.31	22211.51421
555.515	22073.17799
555.72	22343.76339
555.925	22146.41266
556.131	22325.45104
556.336	22030.46002
556.541	22437.36445
556.746	22341.72867
556.951	22598.13188
557.156	22394.63258
557.361	22471.95809
557.567	22353.93704
557.772	22349.86757
557.977	22282.72337
558.182	22608.30779
558.387	22541.14847
558.592	22547.2537
558.797	22488.23781
559.002	22437.36445
559.207	22638.83602
559.412	22492.30777
559.617	22563.53448
559.822	22919.73251
560.027	22970.62653
560.232	23133.50143
560.437	22830.16419
560.642	22986.91306
560.847	23192.54878
561.051	23351.3793
561.256	22740.6025
561.461	23347.30648
561.666	23054.09726
561.871	23107.03281
562.076	22695.82417
562.281	23072.42085
562.485	23056.1332
562.69	23284.17939
562.895	22905.48257
563.1	22881.05447
563.305	23029.66622
563.509	23078.52878
563.714	23198.65729
563.919	23453.2039
564.123	23245.49012
564.328	23434.87489
564.533	23054.09726
564.737	23039.84577
564.942	23349.34289
565.147	23538.74258
565.351	23817.79883
565.556	23449.13076
565.761	23426.72875
565.965	23711.87307
566.17	23587.62427
566.374	23681.31905
566.579	23803.53913
566.784	23557.07301
566.988	23827.98442
567.193	23689.46672
567.397	23520.41241
567.602	23848.35582
567.806	23524.48576
568.011	23665.02384
568.215	24125.43517
568.42	24050.04813
568.624	23862.61597
568.828	23577.44044
569.033	23770.94607
569.237	24274.18278
569.442	23844.28152
569.646	23803.53913
569.85	24219.16486
570.055	24441.28611
570.259	24172.29929
570.463	23960.40366
570.668	24145.8107
570.872	23787.24251
571.076	23866.69032
571.281	24455.55184
571.485	24357.73224
