Data from absorb_only_2.23.25_USB4F045381__22__0127.txt Node

Date: Sun Feb 23 19:15:56 EST 2025
User: ssocol
Spectrometer: USB4F04538
Trigger mode: 4
Integration Time (sec): 2.600000E-3
Scans to average: 1
Electric dark correction enabled: true
Nonlinearity correction enabled: true
Boxcar width: 0
XAxis mode: Wavelengths
Number of Pixels in Spectrum: 3648
>>>>>Begin Spectral Data<<<<<
345.52	19.66988
345.736	19.66988
345.952	19.66988
346.168	55.50246
346.384	78.6918
346.6	-37.2265
346.816	-16.15583
347.032	9.13219
347.248	93.45007
347.464	2.80986
347.68	-75.1474
347.896	-26.69148
348.112	-16.15583
348.328	-14.04863
348.544	42.8549
348.76	42.8549
348.975	-5.61958
349.191	53.39447
349.407	-24.5844
349.623	-24.5844
349.839	49.17857
350.055	-60.40135
350.27	120.86117
350.486	63.93463
350.702	-14.04863
350.918	-33.01256
351.133	-98.3172
351.349	76.58356
351.565	76.58356
351.781	-7.72688
351.996	-51.97449
352.212	-20.37016
352.428	44.96277
352.644	30.20817
352.859	38.63923
353.075	9.13219
353.291	57.61047
353.506	34.42366
353.722	89.23331
353.938	110.318
354.153	0.70246
354.369	47.07066
354.584	101.88386
354.8	42.8549
355.016	-20.37016
355.231	30.20817
355.447	34.42366
355.662	89.23331
355.878	-35.11954
356.093	59.7185
356.309	51.28651
356.524	30.20817
356.74	30.20817
356.955	70.25899
357.171	-16.15583
357.386	-28.79853
357.602	19.66988
357.817	51.28651
358.033	9.13219
358.248	-7.72688
358.464	36.53143
358.679	55.50246
358.895	36.53143
359.11	-20.37016
359.325	53.39447
359.541	25.99279
359.756	38.63923
359.972	34.42366
360.187	38.63923
360.402	44.96277
360.618	13.34719
360.833	51.28651
361.048	25.99279
361.264	-66.72124
361.479	49.17857
361.694	-28.79853
361.909	78.6918
362.125	11.23968
362.34	34.42366
362.555	-49.86771
362.77	-45.65407
362.986	0.70246
363.201	25.99279
363.416	11.23968
363.631	68.15085
363.847	15.45473
364.062	0.70246
364.277	2.80986
364.492	55.50246
364.707	59.7185
364.922	-39.33343
365.138	21.7775
365.353	51.28651
365.568	38.63923
365.783	30.20817
365.998	106.10089
366.213	47.07066
366.428	-11.94141
366.643	34.42366
366.858	55.50246
367.073	17.5623
367.288	93.45007
367.503	-1.40491
367.718	-18.26301
367.933	118.75249
368.148	68.15085
368.363	89.23331
368.578	-1.40491
368.793	34.42366
369.008	49.17857
369.223	-5.61958
369.438	-22.47729
369.653	-24.5844
369.868	-26.69148
370.083	53.39447
370.298	30.20817
370.513	21.7775
370.728	25.99279
370.943	101.88386
371.157	-49.86771
371.372	51.28651
371.587	-64.61464
371.802	-22.47729
372.017	34.42366
372.232	40.74705
372.446	9.13219
372.661	15.45473
372.876	7.02472
373.091	95.55848
373.306	66.04272
373.52	-7.72688
373.735	-7.72688
373.95	63.93463
374.165	68.15085
374.379	87.12496
374.594	-14.04863
374.809	97.66692
375.023	51.28651
375.238	28.10047
375.453	2.80986
375.667	23.88513
375.882	-5.61958
376.097	15.45473
376.311	-1.40491
376.526	-11.94141
376.741	42.8549
376.955	-28.79853
377.17	17.5623
377.384	9.13219
377.599	-18.26301
377.813	63.93463
378.028	38.63923
378.242	42.8549
378.457	-7.72688
378.672	-7.72688
378.886	36.53143
379.101	76.58356
379.315	36.53143
379.53	47.07066
379.744	2.80986
379.958	-16.15583
380.173	106.10089
380.387	61.82655
380.602	42.8549
380.816	42.8549
381.031	32.3159
381.245	93.45007
381.459	-5.61958
381.674	49.17857
381.888	23.88513
382.103	-5.61958
382.317	59.7185
382.531	38.63923
382.746	9.13219
382.96	34.42366
383.174	9.13219
383.388	85.01664
383.603	42.8549
383.817	-3.51226
384.031	21.7775
384.246	7.02472
384.46	68.15085
384.674	4.91728
384.888	7.02472
385.103	-16.15583
385.317	30.20817
385.531	21.7775
385.745	17.5623
385.959	9.13219
386.174	68.15085
386.388	93.45007
386.602	44.96277
386.816	70.25899
387.03	-7.72688
387.244	-33.01256
387.458	-28.79853
387.672	51.28651
387.887	76.58356
388.101	-28.79853
388.315	47.07066
388.529	118.75249
388.743	21.7775
388.957	-14.04863
389.171	25.99279
389.385	61.82655
389.599	93.45007
389.813	55.50246
390.027	13.34719
390.241	78.6918
390.455	13.34719
390.669	-24.5844
390.883	-20.37016
391.097	68.15085
391.311	59.7185
391.525	34.42366
391.738	30.20817
391.952	-35.11954
392.166	59.7185
392.38	53.39447
392.594	25.99279
392.808	97.66692
393.022	21.7775
393.236	30.20817
393.449	72.36716
393.663	38.63923
393.877	4.91728
394.091	23.88513
394.305	11.23968
394.518	68.15085
394.732	51.28651
394.946	89.23331
395.16	34.42366
395.373	42.8549
395.587	87.12496
395.801	47.07066
396.015	68.15085
396.228	25.99279
396.442	30.20817
396.656	21.7775
396.869	13.34719
397.083	44.96277
397.297	11.23968
397.51	89.23331
397.724	13.34719
397.938	49.17857
398.151	38.63923
398.365	19.66988
398.578	17.5623
398.792	36.53143
399.005	89.23331
399.219	110.318
399.433	32.3159
399.646	25.99279
399.86	49.17857
400.073	95.55848
400.287	47.07066
400.5	87.12496
400.714	61.82655
400.927	25.99279
401.141	21.7775
401.354	53.39447
401.567	74.47535
401.781	7.02472
401.994	68.15085
402.208	89.23331
402.421	87.12496
402.635	25.99279
402.848	-24.5844
403.061	51.28651
403.275	34.42366
403.488	23.88513
403.701	42.8549
403.915	11.23968
404.128	57.61047
404.341	9.13219
404.555	36.53143
404.768	34.42366
404.981	30.20817
405.195	61.82655
405.408	7.02472
405.621	53.39447
405.834	30.20817
406.048	72.36716
406.261	25.99279
406.474	93.45007
406.687	42.8549
406.9	0.70246
407.114	15.45473
407.327	95.55848
407.54	68.15085
407.753	55.50246
407.966	21.7775
408.179	42.8549
408.392	110.318
408.605	25.99279
408.819	76.58356
409.032	53.39447
409.245	-18.26301
409.458	51.28651
409.671	-7.72688
409.884	44.96277
410.097	17.5623
410.31	59.7185
410.523	63.93463
410.736	25.99279
410.949	85.01664
411.162	110.318
411.375	11.23968
411.588	32.3159
411.801	21.7775
412.014	59.7185
412.227	120.86117
412.44	61.82655
412.653	25.99279
412.865	38.63923
413.078	80.80005
413.291	87.12496
413.504	0.70246
413.717	76.58356
413.93	-35.11954
414.143	47.07066
414.356	85.01664
414.568	51.28651
414.781	13.34719
414.994	112.42659
415.207	76.58356
415.42	85.01664
415.632	129.2961
415.845	120.86117
416.058	87.12496
416.271	76.58356
416.483	25.99279
416.696	21.7775
416.909	85.01664
417.121	103.99236
417.334	139.84024
417.547	59.7185
417.759	44.96277
417.972	72.36716
418.185	47.07066
418.397	61.82655
418.61	78.6918
418.823	11.23968
419.035	9.13219
419.248	51.28651
419.46	25.99279
419.673	59.7185
419.885	63.93463
420.098	103.99236
420.311	28.10047
420.523	2.80986
420.736	-5.61958
420.948	61.82655
421.161	70.25899
421.373	160.93012
421.586	47.07066
421.798	82.90833
422.01	70.25899
422.223	53.39447
422.435	76.58356
422.648	19.66988
422.86	82.90833
423.073	63.93463
423.285	93.45007
423.497	68.15085
423.71	59.7185
423.922	59.7185
424.134	120.86117
424.347	66.04272
424.559	74.47535
424.771	42.8549
424.984	51.28651
425.196	13.34719
425.408	63.93463
425.621	61.82655
425.833	0.70246
426.045	118.75249
426.257	89.23331
426.47	101.88386
426.682	38.63923
426.894	177.80353
427.106	42.8549
427.318	129.2961
427.531	97.66692
427.743	127.18734
427.955	63.93463
428.167	131.40488
428.379	57.61047
428.591	95.55848
428.804	118.75249
429.016	78.6918
429.228	93.45007
429.44	135.62252
429.652	51.28651
429.864	91.34168
430.076	91.34168
430.288	103.99236
430.5	152.49392
430.712	55.50246
430.924	135.62252
431.136	112.42659
431.348	152.49392
431.56	108.20943
431.772	211.55428
431.984	110.318
432.196	110.318
432.408	196.78769
432.62	99.77538
432.832	186.24073
433.044	114.5352
433.256	169.36666
433.468	72.36716
433.679	95.55848
433.891	103.99236
434.103	173.58505
434.315	114.5352
434.527	127.18734
434.739	78.6918
434.95	167.25749
435.162	203.11611
435.374	205.22562
435.586	148.27594
435.798	179.9128
436.009	203.11611
436.221	152.49392
436.433	120.86117
436.645	154.60294
436.856	255.85985
437.068	198.89714
437.28	205.22562
437.491	186.24073
437.703	160.93012
437.915	186.24073
438.126	211.55428
438.338	116.64384
438.55	272.74039
438.761	226.32184
438.973	270.63026
439.184	236.87069
439.396	129.2961
439.608	219.99277
439.819	135.62252
440.031	209.44471
440.242	234.76089
440.454	173.58505
440.665	203.11611
440.877	253.74986
441.088	198.89714
441.3	148.27594
441.511	241.09037
441.723	213.66387
441.934	207.33515
442.146	287.51185
442.357	219.99277
442.569	255.85985
442.78	279.07091
442.991	300.17382
443.203	217.88312
443.414	260.07987
443.626	228.43158
443.837	302.28422
444.048	279.07091
444.26	295.95309
444.471	306.50506
444.682	196.78769
444.894	194.67826
445.105	253.74986
445.316	437.38548
445.528	289.62213
445.739	306.50506
445.95	306.50506
446.161	300.17382
446.373	384.60334
446.584	321.27857
446.795	289.62213
447.006	236.87069
447.217	371.93715
447.429	382.49226
447.64	348.71739
447.851	262.18991
448.062	350.82819
448.273	355.04985
448.484	262.18991
448.695	399.38131
448.907	331.83161
449.118	386.71443
449.329	342.38509
449.54	405.71498
449.751	238.98052
449.962	407.82623
450.173	428.93966
450.384	363.49336
450.595	365.60428
450.806	428.93966
451.017	433.16254
451.228	397.27012
451.439	338.16365
451.65	371.93715
451.861	469.05951
452.072	523.96917
452.283	515.52089
452.494	473.28298
452.705	464.83611
452.915	490.17744
453.126	498.62502
453.337	515.52089
453.548	412.04879
453.759	490.17744
453.97	496.5131
454.181	517.63294
454.391	507.07284
454.602	523.96917
454.813	600.01358
455.024	640.15495
455.235	568.32629
455.445	509.18483
455.656	678.18766
455.867	593.67589
456.078	568.32629
456.288	587.33831
456.499	614.80198
456.71	623.25277
456.921	536.64201
457.131	785.96659
457.342	671.84861
457.553	726.79042
457.763	633.81654
457.974	758.49094
458.184	640.15495
458.395	847.26422
458.606	775.39883
458.816	881.08681
459.027	836.69512
459.237	802.8755
459.448	900.11294
459.659	840.92273
459.869	819.78501
460.08	969.88074
460.29	1084.06175
460.501	946.62393
460.711	1120.01095
460.922	887.42878
461.132	969.88074
461.343	1018.51126
461.553	1120.01095
461.764	1179.2242
461.974	1033.3125
462.184	976.22366
462.395	1194.028
462.605	1229.98077
462.816	980.4523
463.026	1234.21057
463.236	1306.11875
463.447	1399.17959
463.657	1130.5845
463.867	1471.0913
464.078	1405.52473
464.288	1488.0117
464.498	1471.0913
464.709	1492.24179
464.919	1394.94951
465.129	1606.4529
465.339	1597.99297
465.55	1629.71757
465.76	1549.3478
465.97	1640.29233
466.18	1439.36552
466.391	1866.57286
466.601	1644.52221
466.811	1836.96869
467.021	1758.72485
467.231	2039.94691
467.441	1676.24605
467.651	2097.02396
467.862	2101.25168
468.072	2162.55012
468.282	2063.20116
468.492	2225.95509
468.702	2287.23906
468.912	2340.06377
469.122	2211.16128
469.332	2409.78291
469.542	2337.9509
469.752	2492.16347
469.962	2454.14373
470.172	2656.87234
470.382	2699.09336
470.592	2684.31658
470.802	2747.64112
471.012	2730.75573
471.222	2696.98243
471.432	2851.04522
471.642	2819.39441
471.852	3078.83417
472.062	2933.32232
472.272	3177.90843
472.482	3213.73498
472.691	3521.21831
472.901	3135.7535
473.111	3203.19825
473.321	3310.65322
473.531	3531.74185
473.741	3506.48458
473.95	3775.75634
474.16	3599.08158
474.37	3891.36189
474.58	3569.62278
474.79	4111.8939
474.999	3880.85478
475.209	3914.47577
475.419	4030.00841
475.628	4355.26131
475.838	4460.0717
476.048	4543.88052
476.258	4455.88034
476.467	4690.46036
476.677	4816.01248
476.886	4882.94016
477.096	4799.27691
477.306	4776.26313
477.515	4818.10432
477.725	5060.60272
477.935	5052.24587
478.144	5052.24587
478.354	5110.73607
478.563	5442.53033
478.773	5350.77226
478.982	5496.72961
479.192	5452.9545
479.401	5534.24288
479.611	5550.91299
479.82	5992.12087
480.03	5963.0172
480.239	5979.64843
480.449	5692.54802
480.658	6195.71739
480.868	6226.86022
481.077	6247.61917
481.287	6299.5063
481.496	6457.15356
481.705	6341.00548
481.915	6647.81022
482.124	6533.85424
482.333	6502.7632
482.543	6589.805
482.752	6825.85654
482.961	6935.49874
483.171	7292.94819
483.38	6941.70299
483.589	7034.74252
483.799	7377.56451
484.008	7274.36894
484.217	7286.75531
484.426	7573.48639
484.636	7569.36373
484.845	7738.32341
485.054	7410.57556
485.263	7917.43115
485.472	7552.87219
485.682	7919.48895
485.891	8069.65298
486.1	8038.80621
486.309	8192.99483
486.518	8289.5626
486.727	8322.42683
486.936	8386.08707
487.146	8223.81907
487.355	8609.77825
487.564	8316.26517
487.773	8745.11576
487.982	8665.15335
488.191	8691.8106
488.4	8765.61444
488.609	8802.50748
488.818	8945.92482
489.027	9154.74959
489.236	9228.4097
489.445	9220.22632
489.654	9257.04938
489.863	9594.34584
490.072	9481.96259
490.281	9596.38873
490.49	9522.83478
490.698	9420.64224
490.907	9837.34136
491.116	9918.97258
491.325	10057.69212
491.534	9872.03752
491.743	9821.01227
491.952	10100.51862
492.16	10110.71449
492.369	10212.65407
492.578	10322.71042
492.787	10247.30569
492.996	10495.86898
493.204	10689.29029
493.413	10740.17222
493.622	10813.4291
493.831	10664.86428
494.039	10917.18377
494.248	10618.04283
494.457	11098.17548
494.665	10998.53923
494.874	10943.62627
495.083	10978.20205
495.291	11366.45662
495.5	11165.2628
495.709	11309.56346
495.917	11226.24128
496.126	11319.72353
496.335	11256.727
496.543	11600.04488
496.752	11364.42486
496.96	11553.33726
497.169	11644.71719
497.377	11784.79771
497.586	11794.94685
497.794	12006.00164
498.003	11807.12554
498.211	12048.60784
498.42	11922.80797
498.628	12391.36605
498.837	12046.57905
499.045	12168.29277
499.254	12099.32503
499.462	12158.151
499.671	12326.48081
499.879	12565.71136
500.087	12253.47638
500.296	12602.19626
500.504	12427.86095
500.713	12814.98619
500.921	12697.45307
501.129	12756.22203
501.338	12411.64126
501.546	13007.45756
501.754	12735.95742
501.962	12944.65632
502.171	12752.16916
502.379	13047.97192
502.587	12867.66734
502.795	12934.52662
503.004	13013.53484
503.212	13349.74525
503.42	13199.88371
503.628	13313.29459
503.837	13151.27479
504.045	13596.7664
504.253	13562.34872
504.461	13165.45266
504.669	13661.54994
504.877	13908.50771
505.085	13748.59755
505.294	13819.44605
505.502	13586.64366
505.71	14011.7318
505.918	13697.9892
506.126	13847.78444
506.334	13689.89167
506.542	13946.96452
506.75	14015.77967
506.958	14080.54429
507.166	14319.34489
507.374	14274.8248
507.582	14013.75573
507.79	14232.32752
507.998	13817.42185
508.206	14307.20313
508.414	14394.21772
508.622	14432.66509
508.83	14408.38261
509.037	14946.60599
509.245	14313.27402
509.453	14855.55734
509.661	14442.78273
509.869	14885.907
510.077	14509.55824
510.285	15090.25895
510.492	14724.04039
510.7	15094.3055
510.908	14952.67586
511.116	14786.76424
511.324	15144.88729
511.531	15063.95639
511.739	14997.18819
511.947	14999.21147
512.155	15096.32877
512.362	15031.58396
512.57	14811.04425
512.778	15049.79346
512.985	14989.09505
513.193	15312.81899
513.401	15357.33123
513.608	15460.51943
513.816	15203.56214
514.024	15296.63275
514.231	15320.91211
514.439	15583.94247
514.646	15357.33123
514.854	15745.81306
515.061	15197.49232
515.269	15699.27468
515.477	15545.49896
515.684	15719.50869
515.892	15933.99586
516.099	16205.16144
516.307	15871.26713
516.514	16233.49381
516.722	16073.62251
516.929	15950.18412
517.136	15944.11351
517.344	16091.83519
517.551	16294.20721
517.759	16290.1596
517.966	16330.63603
518.173	16071.59889
518.381	16524.93372
518.588	16336.70756
518.796	16433.85438
519.003	16652.45211
519.21	16334.68371
519.418	16609.945
519.625	16500.64549
519.832	16788.07689
520.039	17105.92848
520.247	16873.10097
520.454	16992.54719
520.661	17346.8933
520.868	16800.22292
521.076	17395.49634
521.283	17002.67017
521.49	16990.5226
521.697	16982.42427
521.904	17334.74281
522.112	16773.90664
522.319	17280.06696
522.526	17221.34345
522.733	17340.81804
522.94	17504.85971
523.147	17255.76728
523.354	17233.49294
523.561	17527.13856
523.768	17478.53065
523.975	17703.35778
524.183	17881.62821
524.39	18019.40098
524.597	17855.29114
524.804	17970.77344
525.011	17646.64084
525.218	17681.07582
525.425	17699.30649
525.632	17934.30412
525.838	18126.79411
526.045	18055.87299
526.252	17918.09589
526.459	18266.62313
526.666	18094.37248
526.873	18207.85228
527.08	18286.88967
527.287	18380.12055
527.494	18120.71499
527.701	18384.17425
527.907	18380.12055
528.114	18980.23644
528.321	18805.84288
528.528	19032.96593
528.735	18957.92863
528.941	18740.95978
529.148	18491.60277
529.355	19152.6315
529.562	18661.88897
529.768	18876.81343
529.975	18844.36914
530.182	18826.11968
530.388	18891.00813
530.595	19371.71726
530.802	18921.426
531.008	19166.83005
531.215	19363.60211
531.422	19426.49622
531.628	19696.37759
531.835	19440.69866
532.042	19452.87235
532.248	20098.29314
532.455	19793.79654
532.661	19527.94673
532.868	19584.76356
533.074	19781.61864
533.281	19791.76688
533.487	19767.41129
533.694	19558.38391
533.9	20092.20228
534.107	19858.74788
534.313	20372.42098
534.52	19893.25503
534.726	20128.74801
534.933	20023.17519
535.139	20008.96433
535.345	20065.809
535.552	20250.57693
535.758	20463.81393
535.965	20575.52794
536.171	20585.68438
536.377	20916.84145
536.584	20691.3176
536.79	20536.9344
536.996	21113.96242
537.203	20764.45488
537.409	20691.3176
537.615	20872.13898
537.821	20843.69299
538.028	21213.5536
538.234	20847.75666
538.44	20953.41768
538.646	21132.25395
538.853	21077.38036
539.059	20750.23332
539.265	21052.99306
539.471	20973.73839
539.677	20705.53831
539.883	21227.7817
540.09	20878.23465
540.296	21028.60634
540.502	21662.85002
540.708	21370.07365
540.914	21896.7229
541.12	21782.83058
541.326	22024.86612
541.532	21699.45282
541.738	21927.23182
541.944	21705.55341
542.15	22116.4062
542.356	22055.37863
542.562	22112.33759
542.768	22246.60959
542.974	21998.42263
543.18	21477.82205
543.386	21949.60557
543.592	22177.43714
543.798	22293.40514
544.004	22161.1619
544.21	22372.75855
544.415	22523.34173
544.621	22653.59162
544.827	22519.27165
545.033	22667.83858
545.239	22655.62689
545.445	22663.768
545.651	22541.65724
545.856	22846.95775
546.062	22806.2465
546.268	22570.14861
546.474	22421.59417
546.679	22258.81694
546.885	22161.1619
547.091	22743.14678
547.297	22592.53518
547.502	22704.4744
547.708	22576.254
547.914	22783.85589
548.119	23144.19083
548.325	22932.45582
548.531	22863.24263
548.736	23042.39066
548.942	22781.8204
549.147	22698.36835
549.353	22922.27717
549.559	23423.16483
549.764	23060.71408
549.97	23252.10794
550.175	23518.8849
550.381	23710.34535
550.586	23329.48804
550.792	23427.23788
550.997	23058.67814
551.203	23675.71755
551.408	23865.16244
551.614	23802.01132
551.819	23840.71651
552.025	24066.85707
552.23	23808.12259
552.435	24136.13229
552.641	24042.40776
552.846	24213.56129
553.052	23895.72043
553.257	24052.59493
553.462	23789.78884
553.668	24046.48262
553.873	24062.78216
554.078	24297.10749
554.283	23793.86299
554.489	24264.50356
554.694	24223.74961
554.899	24615.03085
555.105	24354.16601
555.31	24659.87117
555.515	24187.07198
555.72	24433.6438
555.925	24527.3919
556.131	25018.63571
556.336	24661.90939
556.541	24910.59097
556.746	24447.90947
556.951	24778.09224
557.156	24747.51704
557.361	24824.97526
557.567	24918.74507
557.772	24945.24613
557.977	24608.91635
558.182	24818.86001
558.387	24935.05336
558.592	25030.8676
558.797	24816.8216
559.002	24906.51394
559.207	24802.55279
559.412	25024.75164
559.617	24947.28468
559.822	25510.0118
560.027	25346.88565
560.232	25304.06725
560.437	25312.22306
560.642	25554.87378
560.847	25624.20785
561.051	25726.17383
561.256	25153.19091
561.461	25793.47402
561.666	25528.36431
561.871	25715.97702
562.076	25560.9914
562.281	25609.933
562.485	25230.66647
562.69	25265.3276
562.895	25110.37683
563.1	25609.933
563.305	25607.89374
563.509	25811.82898
563.714	25815.90788
563.919	26105.52852
564.123	25481.46377
564.328	25813.86843
564.533	25514.09012
564.737	25950.51574
564.942	26093.2903
565.147	26352.34583
565.351	26425.78379
565.556	26109.60794
565.761	25997.42642
565.965	26099.4094
566.17	25938.27833
566.374	25885.25032
566.579	25909.72463
566.784	26221.79474
566.988	26134.08462
567.193	26036.17943
567.397	26091.2506
567.602	26601.22727
567.806	26083.09183
568.011	26464.54355
568.215	26619.58831
568.42	26525.74435
568.624	26374.78499
568.828	26735.8777
569.033	26446.18359
569.237	26566.54567
569.442	26489.0237
569.646	26435.98367
569.85	26654.27059
570.055	26974.59198
570.259	26911.34098
570.463	26713.43551
570.668	26499.22383
570.872	26725.67668
571.076	26666.51151
