Data from absorb_only_2.23.25_USB4F045381__89__0194.txt Node

Date: Sun Feb 23 19:30:50 EST 2025
User: ssocol
Spectrometer: USB4F04538
Trigger mode: 4
Integration Time (sec): 2.600000E-3
Scans to average: 1
Electric dark correction enabled: true
Nonlinearity correction enabled: true
Boxcar width: 0
XAxis mode: Wavelengths
Number of Pixels in Spectrum: 3648
>>>>>Begin Spectral Data<<<<<
345.52	52.34049
345.736	52.34049
345.952	52.34049
346.168	60.77252
346.384	54.44846
346.6	-59.34802
346.816	33.36978
347.032	5.97099
347.248	-2.45859
347.464	-0.35123
347.68	-8.78052
347.896	-34.06606
348.112	153.54842
348.328	-57.24133
348.544	-4.56592
348.76	-80.41353
348.975	54.44846
349.191	1.75615
349.407	-25.63794
349.623	-97.26409
349.839	33.36978
350.055	77.63768
350.27	16.50851
350.486	1.75615
350.702	58.66448
350.918	27.04663
351.133	-21.42373
351.349	24.93896
351.565	1.75615
351.781	86.0708
351.996	-50.9211
352.212	62.88058
352.428	14.40096
352.644	-34.06606
352.859	100.82962
353.075	8.07845
353.291	33.36978
353.506	10.18593
353.722	10.18593
353.938	14.40096
354.153	-38.27997
354.369	-38.27997
354.584	16.50851
354.8	18.61609
355.016	27.04663
355.231	-29.85205
355.447	-86.73269
355.662	-4.56592
355.878	-29.85205
356.093	16.50851
356.309	8.07845
356.524	35.47754
356.74	-8.78052
356.955	10.18593
357.171	33.36978
357.386	-15.10224
357.602	12.29343
357.817	-0.35123
358.033	-4.56592
358.248	18.61609
358.464	102.93811
358.679	8.07845
358.895	-15.10224
359.11	12.29343
359.325	18.61609
359.541	-4.56592
359.756	3.86356
359.972	73.42125
360.187	-15.10224
360.402	33.36978
360.618	60.77252
360.833	-0.35123
361.048	-59.34802
361.264	-65.66794
361.479	8.07845
361.694	48.12461
361.909	8.07845
362.125	12.29343
362.34	-67.77453
362.555	-57.24133
362.77	31.26204
362.986	46.01671
363.201	-6.67324
363.416	8.07845
363.631	-19.31659
363.847	12.29343
364.062	46.01671
364.277	8.07845
364.492	5.97099
364.707	52.34049
364.922	33.36978
365.138	-10.88778
365.353	-4.56592
365.568	18.61609
365.783	3.86356
365.998	54.44846
366.213	-53.02787
366.428	1.75615
366.643	-65.66794
366.858	-101.47647
367.073	18.61609
367.288	-23.53085
367.503	18.61609
367.718	35.47754
367.933	39.69314
368.148	18.61609
368.363	16.50851
368.578	-17.20943
368.793	20.72369
369.008	27.04663
369.223	35.47754
369.438	58.66448
369.653	5.97099
369.868	3.86356
370.083	-8.78052
370.298	43.90883
370.513	-0.35123
370.728	-63.56133
370.943	18.61609
371.157	-57.24133
371.372	-21.42373
371.587	3.86356
371.802	18.61609
372.017	35.47754
372.232	-25.63794
372.446	3.86356
372.661	12.29343
372.876	-31.95906
373.091	-42.49378
373.306	8.07845
373.52	-21.42373
373.735	16.50851
373.95	27.04663
374.165	8.07845
374.379	3.86356
374.594	58.66448
374.809	-76.20064
375.023	-0.35123
375.238	83.96248
375.453	-8.78052
375.667	52.34049
375.882	-8.78052
376.097	18.61609
376.311	54.44846
376.526	33.36978
376.741	12.29343
376.955	79.74592
377.17	29.15432
377.384	-6.67324
377.599	-40.38689
377.813	8.07845
378.028	20.72369
378.242	20.72369
378.457	24.93896
378.672	75.52945
378.886	58.66448
379.101	-0.35123
379.315	-0.35123
379.53	43.90883
379.744	-53.02787
379.958	-8.78052
380.173	54.44846
380.387	8.07845
380.602	16.50851
380.816	-15.10224
381.031	-6.67324
381.245	-34.06606
381.459	-67.77453
381.674	8.07845
381.888	-101.47647
382.103	-76.20064
382.317	16.50851
382.531	50.23254
382.746	33.36978
382.96	10.18593
383.174	3.86356
383.388	22.83131
383.603	1.75615
383.817	-25.63794
384.031	-15.10224
384.246	-0.35123
384.46	-34.06606
384.674	24.93896
384.888	81.85419
385.103	8.07845
385.317	-25.63794
385.531	-50.9211
385.745	-29.85205
385.959	-8.78052
386.174	52.34049
386.388	8.07845
386.602	46.01671
386.816	-25.63794
387.03	83.96248
387.244	-82.51994
387.458	3.86356
387.672	1.75615
387.887	-42.49378
388.101	69.20492
388.315	31.26204
388.529	-17.20943
388.743	-4.56592
388.957	-8.78052
389.171	1.75615
389.385	46.01671
389.599	-57.24133
389.813	16.50851
390.027	88.17913
390.241	8.07845
390.455	92.39587
390.669	-6.67324
390.883	-44.60065
391.097	67.09678
391.311	-6.67324
391.525	31.26204
391.738	52.34049
391.952	-99.37029
392.166	-42.49378
392.38	-12.99502
392.594	16.50851
392.808	22.83131
393.022	-21.42373
393.236	50.23254
393.449	48.12461
393.663	-4.56592
393.877	-34.06606
394.091	-59.34802
394.305	-40.38689
394.518	41.80097
394.732	113.4809
394.946	-12.99502
395.16	-12.99502
395.373	-42.49378
395.587	-38.27997
395.801	3.86356
396.015	1.75615
396.228	-34.06606
396.442	24.93896
396.656	35.47754
396.869	-0.35123
397.083	37.58533
397.297	12.29343
397.51	-8.78052
397.724	20.72369
397.938	35.47754
398.151	-12.99502
398.365	-42.49378
398.578	-8.78052
398.792	-34.06606
399.005	-27.74501
399.219	3.86356
399.433	-6.67324
399.646	60.77252
399.86	1.75615
400.073	27.04663
400.287	-46.70749
400.5	27.04663
400.714	-25.63794
400.927	48.12461
401.141	-15.10224
401.354	50.23254
401.567	12.29343
401.781	18.61609
401.994	14.40096
402.208	8.07845
402.421	-23.53085
402.635	48.12461
402.848	-38.27997
403.061	50.23254
403.275	3.86356
403.488	8.07845
403.701	-21.42373
403.915	1.75615
404.128	16.50851
404.341	52.34049
404.555	27.04663
404.768	117.69816
404.981	52.34049
405.195	1.75615
405.408	37.58533
405.621	-15.10224
405.834	-23.53085
406.048	-34.06606
406.261	-8.78052
406.474	29.15432
406.687	60.77252
406.9	-59.34802
407.114	16.50851
407.327	48.12461
407.54	3.86356
407.753	41.80097
407.966	-34.06606
408.179	-15.10224
408.392	-90.94533
408.605	3.86356
408.819	16.50851
409.032	10.18593
409.245	-84.62633
409.458	-10.88778
409.671	-6.67324
409.884	16.50851
410.097	33.36978
410.31	37.58533
410.523	41.80097
410.736	69.20492
410.949	-84.62633
411.162	20.72369
411.375	29.15432
411.588	94.50427
411.801	-0.35123
412.014	-34.06606
412.227	-17.20943
412.44	3.86356
412.653	67.09678
412.865	-19.31659
413.078	71.31307
413.291	27.04663
413.504	67.09678
413.717	-59.34802
413.93	46.01671
414.143	29.15432
414.356	-59.34802
414.568	18.61609
414.781	71.31307
414.994	-0.35123
415.207	-6.67324
415.42	48.12461
415.632	20.72369
415.845	24.93896
416.058	50.23254
416.271	67.09678
416.483	-15.10224
416.696	52.34049
416.909	-55.13461
417.121	12.29343
417.334	24.93896
417.547	-12.99502
417.759	10.18593
417.972	-25.63794
418.185	71.31307
418.397	54.44846
418.61	151.43941
418.823	52.34049
419.035	-40.38689
419.248	83.96248
419.46	50.23254
419.673	-29.85205
419.885	-8.78052
420.098	-4.56592
420.311	24.93896
420.523	-8.78052
420.736	27.04663
420.948	12.29343
421.161	20.72369
421.373	22.83131
421.586	-12.99502
421.798	1.75615
422.01	-55.13461
422.223	18.61609
422.435	-17.20943
422.648	50.23254
422.86	-12.99502
423.073	29.15432
423.285	33.36978
423.497	-8.78052
423.71	-8.78052
423.922	-10.88778
424.134	-38.27997
424.347	10.18593
424.559	-0.35123
424.771	14.40096
424.984	60.77252
425.196	109.26371
425.408	43.90883
425.621	54.44846
425.833	41.80097
426.045	24.93896
426.257	20.72369
426.47	-34.06606
426.682	83.96248
426.894	16.50851
427.106	46.01671
427.318	3.86356
427.531	20.72369
427.743	-29.85205
427.955	14.40096
428.167	1.75615
428.379	35.47754
428.591	12.29343
428.804	10.18593
429.016	8.07845
429.228	-4.56592
429.44	-4.56592
429.652	54.44846
429.864	1.75615
430.076	24.93896
430.288	75.52945
430.5	1.75615
430.712	60.77252
430.924	-8.78052
431.136	-23.53085
431.348	20.72369
431.56	29.15432
431.772	-48.81431
431.984	14.40096
432.196	1.75615
432.408	79.74592
432.62	58.66448
432.832	-50.9211
433.044	-8.78052
433.256	31.26204
433.468	-61.45468
433.679	1.75615
433.891	96.6127
434.103	86.0708
434.315	18.61609
434.527	3.86356
434.739	35.47754
434.95	52.34049
435.162	88.17913
435.374	-19.31659
435.586	60.77252
435.798	-44.60065
436.009	-36.17303
436.221	-0.35123
436.433	-29.85205
436.645	-0.35123
436.856	18.61609
437.068	-17.20943
437.28	-10.88778
437.491	29.15432
437.703	56.55646
437.915	-17.20943
438.126	79.74592
438.338	50.23254
438.55	20.72369
438.761	56.55646
438.973	52.34049
439.184	8.07845
439.396	-0.35123
439.608	69.20492
439.819	24.93896
440.031	-0.35123
440.242	-8.78052
440.454	24.93896
440.665	-40.38689
440.877	20.72369
441.088	-69.8811
441.3	-6.67324
441.511	-15.10224
441.723	20.72369
441.934	33.36978
442.146	10.18593
442.357	79.74592
442.569	102.93811
442.78	22.83131
442.991	22.83131
443.203	35.47754
443.414	-27.74501
443.626	-0.35123
443.837	-15.10224
444.048	60.77252
444.26	58.66448
444.471	-8.78052
444.682	33.36978
444.894	-4.56592
445.105	8.07845
445.316	35.47754
445.528	10.18593
445.739	1.75615
445.95	-25.63794
446.161	-17.20943
446.373	31.26204
446.584	50.23254
446.795	83.96248
447.006	-46.70749
447.217	27.04663
447.429	10.18593
447.64	-17.20943
447.851	71.31307
448.062	33.36978
448.273	-21.42373
448.484	-2.45859
448.695	124.02423
448.907	96.6127
449.118	69.20492
449.329	29.15432
449.54	20.72369
449.751	-0.35123
449.962	29.15432
450.173	50.23254
450.384	16.50851
450.595	-50.9211
450.806	-2.45859
451.017	29.15432
451.228	62.88058
451.439	64.98867
451.65	109.26371
451.861	8.07845
452.072	62.88058
452.283	1.75615
452.494	18.61609
452.705	41.80097
452.915	67.09678
453.126	14.40096
453.337	58.66448
453.548	-15.10224
453.759	12.29343
453.97	46.01671
454.181	62.88058
454.391	64.98867
454.602	52.34049
454.813	50.23254
455.024	8.07845
455.235	33.36978
455.445	29.15432
455.656	50.23254
455.867	5.97099
456.078	35.47754
456.288	56.55646
456.499	62.88058
456.71	98.72115
456.921	52.34049
457.131	-42.49378
457.342	39.69314
457.553	16.50851
457.763	24.93896
457.974	12.29343
458.184	69.20492
458.395	-17.20943
458.606	-19.31659
458.816	-4.56592
459.027	20.72369
459.237	29.15432
459.448	41.80097
459.659	35.47754
459.869	58.66448
460.08	60.77252
460.29	50.23254
460.501	29.15432
460.711	39.69314
460.922	3.86356
461.132	-31.95906
461.343	67.09678
461.553	43.90883
461.764	75.52945
461.974	1.75615
462.184	-29.85205
462.395	-8.78052
462.605	79.74592
462.816	64.98867
463.026	46.01671
463.236	52.34049
463.447	18.61609
463.657	60.77252
463.867	54.44846
464.078	33.36978
464.288	90.28749
464.498	62.88058
464.709	113.4809
464.919	67.09678
465.129	41.80097
465.339	-10.88778
465.55	102.93811
465.76	50.23254
465.97	8.07845
466.18	43.90883
466.391	71.31307
466.601	52.34049
466.811	-8.78052
467.021	62.88058
467.231	67.09678
467.441	1.75615
467.651	79.74592
467.862	140.89469
468.072	20.72369
468.282	50.23254
468.492	105.04662
468.702	39.69314
468.912	119.80683
469.122	75.52945
469.332	54.44846
469.542	-25.63794
469.752	8.07845
469.962	56.55646
470.172	54.44846
470.382	79.74592
470.592	35.47754
470.802	147.22146
471.012	151.43941
471.222	92.39587
471.432	54.44846
471.642	12.29343
471.852	56.55646
472.062	94.50427
472.272	79.74592
472.482	86.0708
472.691	117.69816
472.901	102.93811
473.111	24.93896
473.321	69.20492
473.531	100.82962
473.741	39.69314
473.95	109.26371
474.16	81.85419
474.37	113.4809
474.58	105.04662
474.79	126.13296
474.999	164.09378
475.209	86.0708
475.419	58.66448
475.628	75.52945
475.838	164.09378
476.048	111.37229
476.258	37.58533
476.467	143.00359
476.677	157.7665
476.886	113.4809
477.096	136.67694
477.306	86.0708
477.515	119.80683
477.725	159.87558
477.935	161.98467
478.144	210.49949
478.354	88.17913
478.563	166.20292
478.773	117.69816
478.982	109.26371
479.192	126.13296
479.401	199.95188
479.611	126.13296
479.82	176.7489
480.03	237.92561
480.239	254.80485
480.449	176.7489
480.658	204.17086
480.868	153.54842
481.077	178.85816
481.287	254.80485
481.496	261.13489
481.705	176.7489
481.915	206.28038
482.124	210.49949
482.333	294.89792
482.543	96.6127
482.752	252.69488
482.961	254.80485
483.171	278.01581
483.38	290.67728
483.589	244.25518
483.799	311.78121
484.008	288.56699
484.217	256.91485
484.426	391.99222
484.636	303.33942
484.845	301.22902
485.054	286.45672
485.263	328.66565
485.472	322.33385
485.682	362.43791
485.891	297.00827
486.1	370.88166
486.309	370.88166
486.518	438.44123
486.727	366.65975
486.936	366.65975
487.146	442.66424
487.355	349.77279
487.564	446.88733
487.773	501.79293
487.982	406.7706
488.191	400.43691
488.4	499.68099
488.609	423.66115
488.818	489.12151
489.027	459.55694
489.236	429.99538
489.445	535.58592
489.654	598.95729
489.863	520.80104
490.072	567.2701
490.281	607.4077
490.49	497.56906
490.698	556.70836
490.907	594.73216
491.116	603.18247
491.325	575.71972
491.534	582.05709
491.743	753.20736
491.952	649.66276
492.16	573.6073
492.369	768.00155
492.578	727.84706
492.787	799.70503
492.996	759.54766
493.204	700.37515
493.413	732.07367
493.622	717.28072
493.831	611.63298
494.039	789.13696
494.248	702.4883
494.457	909.62625
494.665	789.13696
494.874	899.05592
495.083	854.66273
495.291	886.37178
495.5	829.29687
495.709	831.41065
495.917	973.05219
496.126	962.48076
496.335	907.51217
496.543	928.65334
496.752	913.85444
496.96	1114.72421
497.169	871.57399
497.377	1053.40037
497.586	979.39514
497.794	915.96855
498.003	856.7766
498.211	1099.92152
498.42	941.33841
498.628	1102.03617
498.837	1030.14078
499.045	1099.92152
499.254	1047.05678
499.462	1157.01885
499.671	1152.78931
499.879	1140.10079
500.087	1114.72421
500.296	1252.18734
500.504	1032.25526
500.713	1173.93717
500.921	1140.10079
501.129	1188.74091
501.338	1214.11914
501.546	1421.38758
501.754	1146.44503
501.962	1300.83129
502.171	1343.13127
502.379	1368.51155
502.587	1135.87131
502.795	1300.83129
503.004	1271.22178
503.212	1195.08542
503.42	1140.10079
503.628	1402.35216
503.837	1292.37139
504.045	1366.39652
504.253	1334.67122
504.461	1343.13127
504.669	1398.12207
504.877	1476.37892
505.085	1565.21044
505.294	1470.03377
505.502	1393.89199
505.71	1641.3498
505.918	1421.38758
506.126	1505.98959
506.334	1302.94628
506.542	1503.87455
506.75	1472.14882
506.958	1588.4755
507.166	1343.13127
507.374	1605.39541
507.582	1630.77505
507.79	1766.12654
507.998	1556.75038
508.206	1694.22261
508.414	1715.37123
508.622	1764.01177
508.83	1541.94521
509.037	1607.51039
509.245	1453.11335
509.453	1618.08527
509.661	1630.77505
509.869	1833.79675
510.077	1683.64819
510.285	1607.51039
510.492	1766.12654
510.7	1969.12216
510.908	1757.66746
511.116	1848.59901
511.324	1649.80956
511.531	1893.00432
511.739	1685.76308
511.947	1772.4708
512.155	1814.76495
512.362	1952.20774
512.57	1799.96219
512.778	2021.97715
512.985	1867.63013
513.193	2041.00394
513.401	1818.99427
513.608	2030.43357
513.816	1757.66746
514.024	1943.75038
514.231	1903.57668
514.439	1922.60658
514.646	1918.37775
514.854	1897.23328
515.061	1901.46222
515.269	1825.33822
515.477	1818.99427
515.684	1971.23644
515.892	1918.37775
516.099	2112.87775
516.307	1998.72145
516.514	2294.63488
516.722	2114.99156
516.929	2155.15239
517.136	2091.73927
517.344	2235.46516
517.551	1971.23644
517.759	2210.10456
517.966	2180.51563
518.173	2220.67163
518.381	2277.72998
518.588	2290.40871
518.796	2241.80512
519.003	2258.71126
519.21	2267.16412
519.418	2326.32992
519.625	2290.40871
519.832	2442.52587
520.039	2163.60693
520.247	2488.9953
520.454	2366.47383
520.661	2408.72664
520.868	2415.0642
521.076	2294.63488
521.283	2450.97525
521.49	2300.97406
521.697	2480.54671
521.904	2609.36767
522.112	2241.80512
522.319	2467.87349
522.526	2423.51414
522.733	2463.649
522.94	2366.47383
523.147	2501.66784
523.354	2453.08757
523.561	2638.92687
523.768	2503.7799
523.975	2497.44371
524.183	2419.28919
524.39	2577.69444
524.597	2723.36811
524.804	2700.14882
525.011	2600.92174
525.218	2647.37191
525.425	2588.25249
525.632	2603.03324
525.838	2657.92792
526.045	2731.81109
526.252	2738.14319
526.459	2900.62507
526.666	2704.37062
526.873	2957.57929
527.08	2698.03789
527.287	2856.32004
527.494	2776.13328
527.701	2915.39201
527.907	2892.18651
528.114	2951.25157
528.321	2750.80704
528.528	2890.07683
528.735	2776.13328
528.941	3037.71863
529.148	2765.58091
529.355	3001.86953
529.562	2864.75958
529.768	3143.13108
529.975	2816.22916
530.182	3018.74025
530.388	2788.79567
530.595	3168.42413
530.802	2839.44029
531.008	3008.19616
531.215	3014.52266
531.422	3031.39264
531.628	3141.02322
531.835	3204.25194
532.042	2966.01603
532.248	3263.25202
532.455	3035.60999
532.661	3269.57267
532.868	3094.64626
533.074	3261.1451
533.281	3060.91274
533.487	3467.54116
533.694	3326.4517
533.9	3471.75156
534.107	3202.14455
534.313	3252.71725
534.52	3136.80745
534.726	3518.06116
534.933	3210.574
535.139	3454.90953
535.345	3307.49341
535.552	3383.31816
535.758	3381.21222
535.965	3473.85673
536.171	3339.08979
536.377	3581.19632
536.584	3343.30235
536.79	3429.64434
536.996	3381.21222
537.203	3480.17214
537.409	3419.11641
537.615	3699.00355
537.821	3461.22543
538.028	3808.34213
538.234	3322.23887
538.44	3692.69396
538.646	3465.43593
538.853	3656.93636
539.059	3490.69746
539.265	3850.38133
539.471	3600.13361
539.677	3757.88471
539.883	3640.10735
540.09	3888.20981
540.296	3715.82828
540.502	3982.75251
540.708	3534.89882
540.914	3600.13361
541.12	3860.88989
541.326	3928.13283
541.532	3884.00696
541.738	4018.45793
541.944	3656.93636
542.15	4148.62709
542.356	3741.06307
542.562	3896.61526
542.768	3835.66851
542.974	4102.44719
543.18	3949.14203
543.386	3961.74657
543.592	3787.31958
543.798	3932.33483
544.004	3921.82968
544.21	4010.05719
544.415	3976.45094
544.621	4207.38678
544.827	3808.34213
545.033	4102.44719
545.239	4003.75642
545.445	4383.56549
545.651	4064.65612
545.856	4169.61459
546.062	4037.3584
546.268	4316.46769
546.474	4024.75827
546.679	4083.5525
546.885	4035.25843
547.091	4043.65818
547.297	3932.33483
547.502	4358.40641
547.708	4169.61459
547.914	4387.75836
548.119	4391.95115
548.325	4358.40641
548.531	4146.52822
548.736	4253.54345
548.942	4224.17222
549.147	4354.21293
549.353	4062.55642
549.559	4597.29013
549.764	4127.63748
549.97	4383.56549
550.175	4222.07411
550.381	4580.53573
550.586	4205.28851
550.792	4479.97949
550.997	4379.37252
551.203	4580.53573
551.408	4521.88413
551.614	4503.02813
551.819	4316.46769
552.025	4523.97912
552.23	4452.73676
552.435	4591.0074
552.641	4833.79242
552.846	4618.23113
553.052	4722.90246
553.257	4645.45107
553.462	4649.63842
553.668	4706.15883
553.873	4865.16477
554.078	4708.25186
554.283	4429.68231
554.489	4844.25044
554.694	4706.15883
554.899	4994.78248
555.105	4739.64465
555.31	4666.38692
555.515	4710.34487
555.72	4982.24269
555.925	4777.30927
556.131	4900.71389
556.336	4724.99531
556.541	4967.61189
556.746	4714.53082
556.951	5019.85956
557.156	4735.45924
557.361	4789.86252
557.567	4599.38433
557.772	5028.21785
557.977	4714.53082
558.182	4850.52498
558.387	4831.70075
558.592	4819.15024
558.797	4888.1679
559.002	5115.95753
559.207	4959.25093
559.412	4980.15265
559.617	4817.0584
559.822	4902.80481
560.027	4748.0152
560.232	4869.34737
560.437	4804.50693
560.642	5197.39341
560.847	5078.35981
561.051	5249.57726
561.256	4950.8896
561.461	5341.38536
561.666	5051.20124
561.871	5163.9881
562.076	4917.44059
562.281	5241.22883
562.485	5053.2905
562.69	5266.27301
562.895	4873.52987
563.1	5293.40041
563.305	5011.5009
563.509	5257.92532
563.714	5082.53771
563.919	5216.18128
564.123	5174.4279
564.328	5391.44338
564.533	5059.55814
564.737	5040.75459
564.942	5118.04607
565.147	5205.74381
565.351	5074.18182
565.556	5226.61817
565.761	4998.96222
565.965	5316.35128
566.17	5080.44877
566.374	5209.91887
566.579	5272.53353
566.784	5601.95582
566.988	5237.05447
567.193	5337.21324
567.397	5155.63584
567.602	5349.7293
567.806	5186.95489
568.011	5533.20094
568.215	5385.18686
568.42	5499.85601
568.624	5393.52883
568.828	5624.86841
569.033	5308.00584
569.237	5606.12196
569.442	5295.48697
569.646	5272.53353
569.85	5345.55737
570.055	5645.69556
570.259	5330.9549
570.463	5537.36864
570.668	5447.74249
570.872	5479.01236
571.076	5439.40296
571.281	5610.288
571.485	5645.69556
571.689	5616.53689
571.893	5447.74249
572.098	5830.95323
572.302	5370.58751
572.506	5589.45684
572.71	5268.35988
572.914	5718.572
573.119	5410.21165
573.323	5703.99903
573.527	5514.44516
573.731	5785.17659
573.935	5641.53032
574.139	5635.28228
574.343	5410.21165
574.547	5893.35751
574.751	5924.55169
574.955	5760.20271
575.159	5518.61328
575.364	5687.34278
575.568	5793.50047
575.772	5785.17659
575.976	5533.20094
576.18	5645.69556
576.383	5654.02576
576.587	6036.8068
576.791	5618.61981
576.995	5745.63303
577.199	5543.62
577.403	5899.59677
577.607	5835.11418
577.811	5993.1602
