Data from absorb_only_2.23.25_USB4F045381__8__0113.txt Node

Date: Sun Feb 23 19:13:11 EST 2025
User: ssocol
Spectrometer: USB4F04538
Trigger mode: 4
Integration Time (sec): 2.600000E-3
Scans to average: 1
Electric dark correction enabled: true
Nonlinearity correction enabled: true
Boxcar width: 0
XAxis mode: Wavelengths
Number of Pixels in Spectrum: 3648
>>>>>Begin Spectral Data<<<<<
345.52	-36.17303
345.736	-36.17303
345.952	-36.17303
346.168	-44.60065
346.384	-53.02787
346.6	31.26204
346.816	31.26204
347.032	10.18593
347.248	-19.31659
347.464	-65.66794
347.68	41.80097
347.896	-29.85205
348.112	39.69314
348.328	-23.53085
348.544	-15.10224
348.76	-10.88778
348.975	10.18593
349.191	-17.20943
349.407	-4.56592
349.623	56.55646
349.839	3.86356
350.055	10.18593
350.27	1.75615
350.486	-42.49378
350.702	10.18593
350.918	37.58533
351.133	12.29343
351.349	12.29343
351.565	8.07845
351.781	-15.10224
351.996	16.50851
352.212	58.66448
352.428	71.31307
352.644	-6.67324
352.859	1.75615
353.075	22.83131
353.291	52.34049
353.506	10.18593
353.722	-31.95906
353.938	52.34049
354.153	43.90883
354.369	-44.60065
354.584	18.61609
354.8	37.58533
355.016	-53.02787
355.231	12.29343
355.447	1.75615
355.662	16.50851
355.878	-42.49378
356.093	60.77252
356.309	1.75615
356.524	-15.10224
356.74	31.26204
356.955	-15.10224
357.171	-109.90091
357.386	20.72369
357.602	16.50851
357.817	-6.67324
358.033	-40.38689
358.248	18.61609
358.464	27.04663
358.679	12.29343
358.895	77.63768
359.11	22.83131
359.325	145.11251
359.541	67.09678
359.756	39.69314
359.972	12.29343
360.187	35.47754
360.402	43.90883
360.618	14.40096
360.833	-21.42373
361.048	-23.53085
361.264	12.29343
361.479	73.42125
361.694	-4.56592
361.909	62.88058
362.125	-31.95906
362.34	29.15432
362.555	-6.67324
362.77	64.98867
362.986	54.44846
363.201	-21.42373
363.416	64.98867
363.631	-6.67324
363.847	24.93896
364.062	-0.35123
364.277	111.37229
364.492	43.90883
364.707	73.42125
364.922	27.04663
365.138	60.77252
365.353	77.63768
365.568	48.12461
365.783	69.20492
365.998	3.86356
366.213	56.55646
366.428	39.69314
366.643	73.42125
366.858	5.97099
367.073	54.44846
367.288	10.18593
367.503	-29.85205
367.718	8.07845
367.933	3.86356
368.148	69.20492
368.363	14.40096
368.578	-0.35123
368.793	43.90883
369.008	33.36978
369.223	18.61609
369.438	86.0708
369.653	86.0708
369.868	52.34049
370.083	12.29343
370.298	98.72115
370.513	37.58533
370.728	-19.31659
370.943	77.63768
371.157	31.26204
371.372	77.63768
371.587	12.29343
371.802	37.58533
372.017	77.63768
372.232	1.75615
372.446	20.72369
372.661	64.98867
372.876	96.6127
373.091	18.61609
373.306	18.61609
373.52	-2.45859
373.735	12.29343
373.95	46.01671
374.165	-29.85205
374.379	-34.06606
374.594	3.86356
374.809	3.86356
375.023	67.09678
375.238	48.12461
375.453	56.55646
375.667	-12.99502
375.882	64.98867
376.097	20.72369
376.311	-17.20943
376.526	39.69314
376.741	107.15516
376.955	22.83131
377.17	48.12461
377.384	39.69314
377.599	5.97099
377.813	1.75615
378.028	-19.31659
378.242	90.28749
378.457	-74.09415
378.672	10.18593
378.886	-2.45859
379.101	46.01671
379.315	94.50427
379.53	35.47754
379.744	48.12461
379.958	113.4809
380.173	46.01671
380.387	27.04663
380.602	8.07845
380.816	14.40096
381.031	-74.09415
381.245	94.50427
381.459	-53.02787
381.674	39.69314
381.888	20.72369
382.103	35.47754
382.317	86.0708
382.531	-10.88778
382.746	8.07845
382.96	27.04663
383.174	81.85419
383.388	-6.67324
383.603	5.97099
383.817	48.12461
384.031	33.36978
384.246	58.66448
384.46	18.61609
384.674	1.75615
384.888	54.44846
385.103	5.97099
385.317	35.47754
385.531	-2.45859
385.745	48.12461
385.959	14.40096
386.174	56.55646
386.388	-29.85205
386.602	-19.31659
386.816	48.12461
387.03	-6.67324
387.244	113.4809
387.458	33.36978
387.672	35.47754
387.887	12.29343
388.101	31.26204
388.315	18.61609
388.529	62.88058
388.743	27.04663
388.957	8.07845
389.171	73.42125
389.385	31.26204
389.599	79.74592
389.813	-15.10224
390.027	46.01671
390.241	35.47754
390.455	10.18593
390.669	8.07845
390.883	12.29343
391.097	83.96248
391.311	-6.67324
391.525	27.04663
391.738	-15.10224
391.952	35.47754
392.166	-8.78052
392.38	37.58533
392.594	90.28749
392.808	56.55646
393.022	58.66448
393.236	10.18593
393.449	37.58533
393.663	-34.06606
393.877	-6.67324
394.091	77.63768
394.305	-12.99502
394.518	56.55646
394.732	16.50851
394.946	50.23254
395.16	-27.74501
395.373	-2.45859
395.587	-23.53085
395.801	-6.67324
396.015	52.34049
396.228	1.75615
396.442	41.80097
396.656	73.42125
396.869	-34.06606
397.083	102.93811
397.297	-6.67324
397.51	86.0708
397.724	-40.38689
397.938	-0.35123
398.151	5.97099
398.365	37.58533
398.578	14.40096
398.792	18.61609
399.005	31.26204
399.219	64.98867
399.433	14.40096
399.646	-6.67324
399.86	-23.53085
400.073	50.23254
400.287	43.90883
400.5	29.15432
400.714	27.04663
400.927	22.83131
401.141	56.55646
401.354	35.47754
401.567	35.47754
401.781	56.55646
401.994	1.75615
402.208	60.77252
402.421	-15.10224
402.635	10.18593
402.848	69.20492
403.061	60.77252
403.275	-27.74501
403.488	64.98867
403.701	-59.34802
403.915	-15.10224
404.128	56.55646
404.341	77.63768
404.555	-48.81431
404.768	8.07845
404.981	52.34049
405.195	39.69314
405.408	-42.49378
405.621	77.63768
405.834	50.23254
406.048	81.85419
406.261	-23.53085
406.474	29.15432
406.687	39.69314
406.9	64.98867
407.114	79.74592
407.327	77.63768
407.54	-44.60065
407.753	39.69314
407.966	60.77252
408.179	43.90883
408.392	41.80097
408.605	96.6127
408.819	35.47754
409.032	75.52945
409.245	-4.56592
409.458	117.69816
409.671	-31.95906
409.884	-4.56592
410.097	92.39587
410.31	31.26204
410.523	39.69314
410.736	3.86356
410.949	60.77252
411.162	24.93896
411.375	-19.31659
411.588	107.15516
411.801	-31.95906
412.014	39.69314
412.227	37.58533
412.44	60.77252
412.653	-86.73269
412.865	96.6127
413.078	79.74592
413.291	50.23254
413.504	81.85419
413.717	98.72115
413.93	94.50427
414.143	69.20492
414.356	96.6127
414.568	29.15432
414.781	12.29343
414.994	94.50427
415.207	98.72115
415.42	94.50427
415.632	86.0708
415.845	43.90883
416.058	75.52945
416.271	107.15516
416.483	128.24171
416.696	60.77252
416.909	119.80683
417.121	77.63768
417.334	60.77252
417.547	54.44846
417.759	5.97099
417.972	-38.27997
418.185	71.31307
418.397	37.58533
418.61	52.34049
418.823	43.90883
419.035	105.04662
419.248	54.44846
419.46	-6.67324
419.673	71.31307
419.885	-21.42373
420.098	48.12461
420.311	43.90883
420.523	88.17913
420.736	18.61609
420.948	52.34049
421.161	33.36978
421.373	37.58533
421.586	27.04663
421.798	79.74592
422.01	73.42125
422.223	119.80683
422.435	52.34049
422.648	86.0708
422.86	56.55646
423.073	60.77252
423.285	60.77252
423.497	79.74592
423.71	138.7858
423.922	77.63768
424.134	27.04663
424.347	157.7665
424.559	60.77252
424.771	102.93811
424.984	43.90883
425.196	-17.20943
425.408	79.74592
425.621	153.54842
425.833	94.50427
426.045	92.39587
426.257	31.26204
426.47	14.40096
426.682	145.11251
426.894	88.17913
427.106	52.34049
427.318	149.33043
427.531	69.20492
427.743	54.44846
427.955	102.93811
428.167	98.72115
428.379	128.24171
428.591	119.80683
428.804	98.72115
429.016	111.37229
429.228	69.20492
429.44	119.80683
429.652	126.13296
429.864	124.02423
430.076	79.74592
430.288	124.02423
430.5	90.28749
430.712	35.47754
430.924	117.69816
431.136	111.37229
431.348	136.67694
431.56	98.72115
431.772	168.31207
431.984	52.34049
432.196	109.26371
432.408	183.07674
432.62	60.77252
432.832	134.5681
433.044	170.42125
433.256	140.89469
433.468	170.42125
433.679	145.11251
433.891	124.02423
434.103	216.8283
434.315	151.43941
434.527	229.48645
434.739	130.35049
434.95	168.31207
435.162	143.00359
435.374	132.45929
435.586	183.07674
435.798	170.42125
436.009	193.62355
436.221	180.96744
436.433	145.11251
436.645	178.85816
436.856	248.47499
437.068	231.59621
437.28	164.09378
437.491	214.71868
437.703	176.7489
437.915	178.85816
438.126	170.42125
438.338	195.73297
438.55	299.11864
438.761	273.79547
438.973	193.62355
439.184	214.71868
439.396	237.92561
439.608	221.0476
439.819	237.92561
440.031	191.51415
440.242	199.95188
440.454	271.68532
440.665	206.28038
440.877	231.59621
441.088	252.69488
441.3	221.0476
441.511	206.28038
441.723	324.44443
441.934	223.15728
442.146	237.92561
442.357	305.44984
442.569	271.68532
442.78	256.91485
442.991	330.77629
443.203	326.55503
443.414	326.55503
443.626	282.23623
443.837	322.33385
444.048	273.79547
444.26	259.02486
444.471	339.219
444.682	349.77279
444.894	330.77629
445.105	332.88694
445.316	339.219
445.528	337.1083
445.739	282.23623
445.95	305.44984
446.161	311.78121
446.373	349.77279
446.584	229.48645
446.795	280.12601
447.006	316.00221
447.217	282.23623
447.429	273.79547
447.64	305.44984
447.851	307.56028
448.062	330.77629
448.273	318.11274
448.484	372.99264
448.695	419.43842
448.907	394.10337
449.118	372.99264
449.329	288.56699
449.54	410.99314
449.751	372.99264
449.962	383.5478
450.173	362.43791
450.384	396.21454
450.595	527.13733
450.806	417.32708
451.017	408.88187
451.228	478.56239
451.439	446.88733
451.65	421.54978
451.861	451.11047
452.072	425.77255
452.283	487.00965
452.494	518.68897
452.705	544.03473
452.915	476.45062
453.126	487.00965
453.337	457.4453
453.548	537.6981
453.759	558.82068
453.97	651.77565
454.181	554.59606
454.391	586.28206
454.602	630.64738
454.813	584.16957
455.024	774.34207
455.235	501.79293
455.445	649.66276
455.656	569.38248
455.867	643.32419
456.078	544.03473
456.288	658.11436
456.499	634.87293
456.71	713.05426
456.921	672.90511
457.131	780.68268
457.342	681.35723
457.553	748.98054
457.763	626.42187
457.974	806.04598
458.184	746.86714
458.395	831.41065
458.606	905.3981
458.816	1019.56848
459.027	880.02982
459.237	896.94188
459.448	877.91585
459.659	930.7675
459.869	951.90949
460.08	1040.71324
460.29	1102.03617
460.501	1078.77523
460.711	1049.1713
460.922	964.59503
461.132	1148.55979
461.343	1104.15084
461.553	1129.52714
461.764	1036.48424
461.974	1102.03617
462.184	1127.41242
462.395	1277.56664
462.605	1457.34346
462.816	1112.60953
463.026	1357.93641
463.236	1493.29932
463.447	1406.58225
463.657	1379.08671
463.867	1582.1305
464.078	1470.03377
464.288	1501.7595
464.498	1590.5905
464.709	1550.40531
464.919	1552.52034
465.129	1689.99285
465.339	1647.69462
465.55	1683.64819
465.76	1747.09354
465.97	1626.54513
466.18	1658.26928
466.391	1827.45286
466.601	1742.86394
466.811	1956.43638
467.021	1848.59901
467.231	1988.15042
467.441	1956.43638
467.651	2182.62918
467.862	2144.58402
468.072	2326.32992
468.282	2294.63488
468.492	2218.55824
468.702	2529.12363
468.912	2404.50155
469.122	2457.31218
469.332	2638.92687
469.542	2495.33162
469.752	2719.14653
469.962	2706.48151
470.172	2681.15005
470.382	2942.81441
470.592	2835.22021
470.802	2845.7703
471.012	3113.61958
471.222	3105.18715
471.432	3195.8223
471.642	3172.63942
471.852	3271.67953
472.062	3105.18715
472.272	3440.17181
472.482	3290.64043
472.691	3715.82828
472.901	3482.27724
473.111	3553.83979
473.321	3726.34312
473.531	3833.5666
473.741	3799.93335
473.95	4024.75827
474.16	3841.97412
474.37	4070.9551
474.58	4037.3584
474.79	4536.54866
474.999	4339.53506
475.209	4238.85836
475.419	4350.01936
475.628	4549.11739
475.838	4452.73676
476.048	4708.25186
476.258	4626.6069
476.467	4959.25093
476.677	4892.34999
476.886	5172.33999
477.096	5145.19499
477.306	5082.53771
477.515	5099.24836
477.725	5118.04607
477.935	5226.61817
478.144	5441.48788
478.354	5239.14166
478.563	5662.35558
478.773	5643.61295
478.982	5537.36864
479.192	5889.19789
479.401	5693.58905
479.611	5828.87272
479.82	6047.19732
480.03	6051.35336
480.239	6020.18075
480.449	6144.83943
480.658	6429.16026
480.868	6437.45501
481.077	6590.84097
481.287	6518.30937
481.496	6934.46467
481.705	6911.71386
481.915	7062.64549
482.124	6831.02977
482.333	7052.31153
482.543	6955.14486
482.752	7165.95437
482.961	7062.64549
483.171	7475.54982
483.38	7209.32752
483.589	7663.13335
483.799	7749.65099
484.008	7914.34442
484.217	7945.20969
484.426	7996.64157
484.636	7947.26721
484.845	7879.35817
485.054	7893.765
485.263	8140.58335
485.472	8169.35989
485.682	8274.15577
485.891	8465.12312
486.1	8444.59701
486.309	8403.53904
486.518	8688.73492
486.727	8807.63104
486.936	9102.56032
487.146	8772.78855
487.355	8770.73883
487.564	8963.33384
487.773	9118.93462
487.982	8992.00472
488.191	9215.11158
488.4	9059.5725
488.609	9303.07057
488.818	9354.19536
489.027	9611.7099
489.236	9462.54605
489.445	9703.61855
489.654	9442.10601
489.863	9913.87132
490.072	9623.9662
490.281	9948.55809
490.49	10058.71187
490.698	10211.63484
490.907	9932.23543
491.116	10299.27578
491.325	10193.28821
491.534	10289.08626
491.743	10411.33862
491.952	10517.25268
492.16	10604.80951
492.369	10702.52031
492.578	10621.09661
492.787	10814.44645
492.996	10757.47037
493.204	11011.7578
493.413	10999.55606
493.622	11245.54917
493.831	10987.35392
494.039	11318.70753
494.248	11479.20413
494.457	11387.78954
494.665	11412.16869
494.874	11456.86015
495.083	11712.73255
495.291	11499.51583
495.5	11613.24398
495.709	11613.24398
495.917	11718.82299
496.126	11787.84247
496.335	11783.78278
496.543	11946.14415
496.752	12080.05307
496.96	12491.72184
497.169	12144.96642
497.377	12343.71664
497.586	12213.92845
497.794	12240.29404
498.003	12301.13309
498.211	12485.64013
498.42	12246.37824
498.628	12447.12127
498.837	12716.70551
499.045	12903.12374
499.254	12830.18306
499.462	12722.78512
499.671	12955.79883
499.879	13300.13152
500.087	12941.61742
500.296	13040.88205
500.504	12886.9153
500.713	13077.34361
500.921	13699.00138
501.129	13241.40177
501.338	13089.49712
501.546	13684.8307
501.754	13200.89637
501.962	13632.19533
502.171	13445.92823
502.379	13478.32473
502.587	13429.72961
502.795	13723.29362
503.004	13705.07448
503.212	13931.78431
503.42	13879.15844
503.628	13988.45635
503.837	13919.64004
504.045	14008.69589
504.253	13976.31251
504.461	13875.11022
504.669	14312.2622
504.877	14445.81801
505.085	14099.77084
505.294	14453.91208
505.502	14312.2622
505.71	14538.89854
505.918	14233.33937
506.126	14381.06455
506.334	14263.69464
506.542	14704.8184
506.75	14405.34728
506.958	14779.68255
507.166	14753.37906
507.374	14561.15652
507.582	14828.24252
507.79	14977.96698
507.998	14795.86926
508.206	15131.73603
508.414	15172.20144
508.622	15317.87719
508.83	15052.82837
509.037	15542.46396
509.245	14805.98592
509.453	15374.52919
509.661	15149.94546
509.869	15461.53108
510.077	15097.34041
510.285	15582.93079
510.492	15696.23958
510.7	15811.57474
510.908	15431.18149
511.116	15429.15818
511.324	15390.71552
511.531	15671.9589
511.739	15356.31959
511.947	15629.46802
512.155	15514.13734
512.362	15621.37456
512.57	15825.73895
512.778	15742.77793
512.985	15866.20842
513.193	15924.89
513.401	16062.4926
513.608	16181.88867
513.816	16187.9598
514.024	16086.7761
514.231	16068.56346
514.439	16230.45819
514.646	16224.38694
514.854	16418.67489
515.061	16074.63432
515.269	16285.1001
515.477	16424.74667
515.684	16590.71592
515.892	16451.05793
516.099	16898.40662
516.307	16748.6029
516.514	16983.43656
516.722	16529.99381
516.929	16884.23541
517.136	16653.4642
517.344	16987.48572
517.551	16866.01546
517.759	16651.44003
517.966	17135.28755
518.173	17066.44652
518.381	17317.52981
518.588	17032.0272
518.796	17153.51072
519.003	17100.86663
519.21	17202.10698
519.418	17420.81113
519.625	17313.47972
519.832	17339.8055
520.039	17542.3289
520.247	17761.09021
520.454	17487.6445
520.661	17864.40775
520.868	17487.6445
521.076	18060.93864
521.283	17615.24508
521.49	17939.36923
521.697	17586.88829
521.904	18121.72817
522.112	17704.37061
522.319	18152.12416
522.526	17915.05688
522.733	18152.12416
522.94	18206.83902
523.147	18466.26489
523.354	18229.13102
523.561	18683.17668
523.768	18190.62693
523.975	18533.15819
524.183	18443.96805
524.39	18596.00118
524.597	18409.5102
524.804	18666.95743
525.011	18664.93005
525.218	18610.19205
525.425	18804.82905
525.632	18954.8867
525.838	18885.93857
526.045	18571.67442
526.252	19056.28947
526.459	19137.41899
526.666	18922.43994
526.873	19036.0081
527.08	18924.46783
527.287	18924.46783
527.494	18829.16124
527.701	19482.29271
527.907	19332.15655
528.114	19364.6165
528.321	19809.01913
528.528	19721.74618
528.735	19691.30395
528.941	19455.9158
529.148	19488.37979
529.355	20048.55223
529.562	19553.31098
529.768	19813.07852
529.975	19326.07043
530.182	19922.68856
530.388	19890.21023
530.595	19926.74842
530.802	19715.65765
531.008	19865.85219
531.215	20038.40134
531.422	20422.17831
531.628	19886.15052
531.835	20016.06974
532.042	20342.97395
532.248	20235.34749
532.455	20477.01583
532.661	20393.74524
532.868	20375.46727
533.074	20452.64322
533.281	20676.08134
533.487	21114.97861
533.694	20609.0446
533.9	21432.07843
534.107	20789.85102
534.313	21304.00708
534.52	20915.82546
534.726	21279.61434
534.933	21218.63504
535.139	21192.21181
535.345	20696.3964
535.552	21240.9937
535.758	21539.83328
535.965	21570.33195
536.171	21383.28747
536.377	21686.235
536.584	21127.17293
536.79	21334.49881
536.996	21511.36865
537.203	21688.2685
537.409	21340.59727
537.615	21806.21819
537.821	21659.79985
538.028	21834.69076
538.234	21608.96488
538.44	21706.57018
538.646	21796.0496
538.853	21773.67904
539.059	21779.78005
539.265	22170.31669
539.471	22005.54197
539.677	22080.80638
539.883	21830.6232
540.09	22109.28615
540.296	22056.39573
540.502	22693.28
540.708	22520.28917
540.914	22341.21999
541.12	22322.90768
541.326	22381.91507
541.532	22679.03274
541.738	22902.93795
541.944	22705.49208
542.15	22992.51161
542.356	22695.31534
542.562	23163.53379
542.768	22890.72387
542.974	22756.37709
543.18	23165.56991
543.386	23090.23571
543.592	23375.30737
543.798	23448.62162
544.004	23383.4532
544.21	23593.22541
544.415	23230.72741
544.621	23550.45366
544.827	23167.60603
545.033	23858.03233
545.239	23430.29268
545.445	24137.15107
545.651	23471.02401
545.856	23843.77223
546.062	23778.585
546.268	23925.26045
546.474	23487.31689
546.679	23813.21534
546.885	23228.69119
547.091	23605.44615
547.297	22996.58329
547.502	23737.84451
547.708	23646.18276
547.914	23762.28866
548.119	23794.88153
548.325	23819.32667
548.531	23623.77747
548.736	24181.97793
548.942	24212.54246
549.147	23933.40952
549.353	23829.51227
549.559	24167.7147
549.764	24071.95073
549.97	24012.86538
550.175	24296.08861
550.381	24503.95437
550.586	24298.12638
550.792	24982.95985
550.997	24789.30328
551.203	24614.01176
551.408	24834.14817
551.614	25035.96424
551.819	24903.45617
552.025	24899.37916
552.23	24638.46996
552.435	24781.14979
552.641	25015.57775
552.846	24976.84405
553.052	24956.45823
553.257	25141.97761
553.462	25084.89273
553.668	25015.57775
553.873	24946.2654
554.078	25201.10305
554.283	25374.41225
554.489	25321.39839
554.694	25358.10014
554.899	25755.74487
555.105	25388.68546
555.31	25541.619
555.515	25404.99782
555.72	25698.64254
555.925	25331.59325
556.131	25892.38863
556.336	25303.04777
556.541	25937.25855
556.746	25696.6032
556.951	25543.65819
557.156	25529.3839
557.361	25584.44244
557.567	25843.44065
557.772	26022.92175
557.977	25927.06077
558.182	26016.80284
558.387	26075.95292
558.592	26163.66093
558.797	26228.93408
559.002	26104.50867
559.207	26000.48584
559.412	25976.01056
559.617	25772.0601
559.822	26414.56397
560.027	26475.76359
560.232	26437.00366
560.437	26498.20381
560.642	26428.84375
560.847	26779.74251
561.051	26453.32356
561.256	26432.9237
561.461	26563.48555
561.666	26616.52813
561.871	26577.76614
562.076	26638.96953
562.281	26736.8978
562.485	26379.88482
562.69	26494.12376
562.895	26302.36844
563.1	26857.27266
563.305	26608.36766
563.509	26875.63537
563.714	27361.2678
563.919	26836.86978
564.123	26863.39355
564.328	26751.1793
564.533	26765.46087
564.737	26736.8978
564.942	26916.44182
565.147	26965.4103
565.351	27279.6436
565.556	27057.22838
565.761	26920.52249
565.965	27185.77836
566.17	27314.33363
566.374	27332.69909
566.579	27210.26467
566.784	27165.37324
566.988	27312.29303
567.193	27620.43805
567.397	27332.69909
567.602	27757.17362
567.806	27279.6436
568.011	27853.09577
568.215	27881.66882
568.42	27816.35932
568.624	27579.62251
568.828	27634.7236
569.033	27651.05002
569.237	28236.80959
569.442	27585.74481
569.646	27459.21954
569.85	27761.25536
570.055	28306.20883
570.259	28202.11045
