Data from absorb_only_2.23.25_USB4F045381__10__0115.txt Node

Date: Sun Feb 23 19:13:48 EST 2025
User: ssocol
Spectrometer: USB4F04538
Trigger mode: 4
Integration Time (sec): 2.600000E-3
Scans to average: 1
Electric dark correction enabled: true
Nonlinearity correction enabled: true
Boxcar width: 0
XAxis mode: Wavelengths
Number of Pixels in Spectrum: 3648
>>>>>Begin Spectral Data<<<<<
345.52	-46.18078
345.736	-46.18078
345.952	-46.18078
346.168	25.46587
346.384	25.46587
346.6	-35.64629
346.816	78.16474
347.032	-44.07393
347.248	19.14299
347.464	8.60532
347.68	-23.00407
347.896	-50.3944
348.112	-44.07393
348.328	-18.7898
348.544	17.0354
348.76	50.75953
348.975	42.32793
349.191	-23.00407
349.407	-107.26832
349.623	31.78897
349.839	-6.14641
350.055	-52.50118
350.27	10.7128
350.486	-84.09974
350.702	31.78897
350.918	-77.78048
351.133	-50.3944
351.349	-27.21824
351.565	19.14299
351.781	23.35822
351.996	50.75953
352.212	-1.93175
352.428	0.17561
352.644	-4.03909
352.859	23.35822
353.075	-60.92802
353.291	42.32793
353.506	-8.2537
353.722	8.60532
353.938	19.14299
354.153	14.92785
354.369	-29.32529
354.584	61.29953
354.8	-16.68263
355.016	6.49786
355.231	-67.24789
355.447	-48.28761
355.662	31.78897
355.878	44.4358
356.093	21.25059
356.309	42.32793
356.524	-27.21824
356.74	31.78897
356.955	0.17561
357.171	59.19149
357.386	-90.41875
357.602	-46.18078
357.817	31.78897
358.033	-39.86016
358.248	6.49786
358.464	-6.14641
358.679	-50.3944
358.895	-41.96706
359.11	-27.21824
359.325	-16.68263
359.541	-60.92802
359.756	76.05651
359.972	23.35822
360.187	-18.7898
360.402	-14.57544
360.618	2.283
360.833	-33.53931
361.048	57.08346
361.264	33.89672
361.479	27.57355
361.694	44.4358
361.909	19.14299
362.125	14.92785
362.34	-41.96706
362.555	-41.96706
362.77	-12.46822
362.986	-41.96706
363.201	10.7128
363.416	8.60532
363.631	6.49786
363.847	-6.14641
364.062	-1.93175
364.277	-88.31244
364.492	-6.14641
364.707	6.49786
364.922	-33.53931
365.138	-12.46822
365.353	-14.57544
365.568	8.60532
365.783	-18.7898
365.998	-94.6313
366.213	29.68125
366.428	-18.7898
366.643	-69.35446
366.858	-44.07393
367.073	-12.46822
367.288	23.35822
367.503	0.17561
367.718	14.92785
367.933	31.78897
368.148	29.68125
368.363	-79.88693
368.578	-35.64629
368.793	-27.21824
369.008	25.46587
369.223	-18.7898
369.438	-14.57544
369.653	-37.75323
369.868	-18.7898
370.083	-12.46822
370.298	-60.92802
370.513	-8.2537
370.728	-16.68263
370.943	-6.14641
371.157	-4.03909
371.372	-48.28761
371.587	4.39042
371.802	-44.07393
372.017	-33.53931
372.232	29.68125
372.446	-12.46822
372.661	-16.68263
372.876	67.62381
373.091	-35.64629
373.306	80.27299
373.52	31.78897
373.735	-23.00407
373.95	0.17561
374.165	2.283
374.379	23.35822
374.594	-31.43231
374.809	50.75953
375.023	-27.21824
375.238	36.00449
375.453	19.14299
375.667	21.25059
375.882	46.54368
376.097	-60.92802
376.311	2.283
376.526	-65.14129
376.741	33.89672
376.955	6.49786
377.17	23.35822
377.384	6.49786
377.599	-96.73754
377.813	17.0354
378.028	65.5157
378.242	40.22009
378.457	23.35822
378.672	23.35822
378.886	-63.03467
379.101	65.5157
379.315	-35.64629
379.53	-44.07393
379.744	17.0354
379.958	0.17561
380.173	54.97546
380.387	48.65159
380.602	-6.14641
380.816	31.78897
381.031	-10.36097
381.245	-8.2537
381.459	36.00449
381.674	44.4358
381.888	-33.53931
382.103	-31.43231
382.317	-18.7898
382.531	-14.57544
382.746	2.283
382.96	61.29953
383.174	14.92785
383.388	4.39042
383.603	36.00449
383.817	52.86748
384.031	44.4358
384.246	57.08346
384.46	0.17561
384.674	10.7128
384.888	10.7128
385.103	25.46587
385.317	-25.11117
385.531	76.05651
385.745	14.92785
385.959	33.89672
386.174	109.79086
386.388	-8.2537
386.602	31.78897
386.816	-33.53931
387.03	6.49786
387.244	-60.92802
387.458	-44.07393
387.672	-58.82135
387.887	6.49786
388.101	0.17561
388.315	2.283
388.529	-35.64629
388.743	4.39042
388.957	6.49786
389.171	99.24826
389.385	-18.7898
389.599	-1.93175
389.813	-14.57544
390.027	-8.2537
390.241	23.35822
390.455	29.68125
390.669	8.60532
390.883	-1.93175
391.097	33.89672
391.311	36.00449
391.525	2.283
391.738	-4.03909
391.952	-18.7898
392.166	14.92785
392.38	-1.93175
392.594	33.89672
392.808	42.32793
393.022	17.0354
393.236	73.9483
393.449	-18.7898
393.663	-16.68263
393.877	27.57355
394.091	10.7128
394.305	59.19149
394.518	80.27299
394.732	-25.11117
394.946	57.08346
395.16	-27.21824
395.373	25.46587
395.587	31.78897
395.801	50.75953
396.015	-12.46822
396.228	42.32793
396.442	-27.21824
396.656	14.92785
396.869	42.32793
397.083	6.49786
397.297	31.78897
397.51	25.46587
397.724	42.32793
397.938	40.22009
398.151	-12.46822
398.365	-16.68263
398.578	25.46587
398.792	52.86748
399.005	-12.46822
399.219	10.7128
399.433	2.283
399.646	19.14299
399.86	29.68125
400.073	40.22009
400.287	-4.03909
400.5	-29.32529
400.714	73.9483
400.927	-48.28761
401.141	61.29953
401.354	95.03138
401.567	-35.64629
401.781	19.14299
401.994	-29.32529
402.208	59.19149
402.421	2.283
402.635	40.22009
402.848	-31.43231
403.061	52.86748
403.275	-44.07393
403.488	59.19149
403.701	6.49786
403.915	69.73195
404.128	-8.2537
404.341	-18.7898
404.555	-33.53931
404.768	67.62381
404.981	14.92785
405.195	-1.93175
405.408	57.08346
405.621	65.5157
405.834	4.39042
406.048	-10.36097
406.261	-1.93175
406.474	42.32793
406.687	44.4358
406.9	14.92785
407.114	40.22009
407.327	-18.7898
407.54	-20.89695
407.753	99.24826
407.966	42.32793
408.179	40.22009
408.392	-1.93175
408.605	36.00449
408.819	-18.7898
409.032	84.48956
409.245	-31.43231
409.458	50.75953
409.671	14.92785
409.884	-23.00407
410.097	2.283
410.31	73.9483
410.523	23.35822
410.736	50.75953
410.949	48.65159
411.162	44.4358
411.375	40.22009
411.588	-1.93175
411.801	-27.21824
412.014	23.35822
412.227	42.32793
412.44	0.17561
412.653	-46.18078
412.865	46.54368
413.078	-35.64629
413.291	84.48956
413.504	73.9483
413.717	-18.7898
413.93	19.14299
414.143	78.16474
414.356	82.38126
414.568	-18.7898
414.781	38.11228
414.994	50.75953
415.207	10.7128
415.42	-1.93175
415.632	82.38126
415.845	17.0354
416.058	42.32793
416.271	0.17561
416.483	48.65159
416.696	57.08346
416.909	31.78897
417.121	33.89672
417.334	-6.14641
417.547	65.5157
417.759	40.22009
417.972	65.5157
418.185	29.68125
418.397	4.39042
418.61	69.73195
418.823	52.86748
419.035	-12.46822
419.248	25.46587
419.46	65.5157
419.673	145.63975
419.885	29.68125
420.098	48.65159
420.311	38.11228
420.523	42.32793
420.736	6.49786
420.948	27.57355
421.161	48.65159
421.373	92.92297
421.586	-35.64629
421.798	65.5157
422.01	40.22009
422.223	36.00449
422.435	44.4358
422.648	12.82031
422.86	6.49786
423.073	76.05651
423.285	164.62107
423.497	78.16474
423.71	44.4358
423.922	57.08346
424.134	-8.2537
424.347	95.03138
424.559	71.84011
424.771	76.05651
424.984	76.05651
425.196	38.11228
425.408	65.5157
425.621	40.22009
425.833	57.08346
426.045	149.85767
426.257	109.79086
426.47	132.98649
426.682	69.73195
426.894	48.65159
427.106	105.57375
427.318	59.19149
427.531	48.65159
427.743	86.59788
427.955	61.29953
428.167	61.29953
428.379	67.62381
428.591	67.62381
428.804	57.08346
429.016	63.4076
429.228	73.9483
429.44	120.334
429.652	95.03138
429.864	42.32793
430.076	128.76891
430.288	99.24826
430.5	149.85767
430.712	132.98649
430.924	82.38126
431.136	48.65159
431.348	116.11668
431.56	114.00805
431.772	99.24826
431.984	111.89944
432.196	65.5157
432.408	145.63975
432.62	132.98649
432.832	141.42191
433.044	99.24826
433.256	185.7134
433.468	132.98649
433.679	128.76891
433.891	86.59788
434.103	120.334
434.315	164.62107
434.527	160.40285
434.739	107.68229
434.95	111.89944
435.162	137.20416
435.374	120.334
435.586	128.76891
435.798	124.55141
436.009	78.16474
436.221	217.35571
436.433	158.29377
436.645	139.31302
436.856	97.13981
437.068	128.76891
437.28	149.85767
437.491	158.29377
437.703	192.04149
437.915	126.66015
438.126	156.18471
438.338	135.09531
438.55	179.38548
438.761	162.51195
438.973	223.68471
439.184	183.60407
439.396	124.55141
439.608	217.35571
439.819	223.68471
440.031	149.85767
440.242	200.47924
440.454	168.83937
440.665	198.36978
440.877	223.68471
441.088	175.16697
441.3	261.6624
441.511	204.69824
441.723	109.79086
441.934	270.10273
442.146	154.07568
442.357	225.79441
442.569	208.91732
442.78	143.53082
442.991	255.33235
443.203	286.98428
443.414	284.87402
443.626	303.86702
443.837	200.47924
444.048	217.35571
444.26	301.75662
444.471	211.02688
444.682	293.31517
444.894	278.54336
445.105	301.75662
445.316	373.52039
445.528	217.35571
445.739	360.85473
445.95	246.89255
446.161	314.41933
446.373	219.46535
446.584	213.13647
446.795	371.40941
447.006	322.8615
447.217	251.11241
447.429	270.10273
447.64	293.31517
447.851	267.99262
448.062	310.19835
448.273	305.97745
448.484	301.75662
448.695	388.29776
448.907	314.41933
449.118	310.19835
449.329	301.75662
449.54	373.52039
449.751	316.52984
449.962	360.85473
450.173	339.74668
450.384	346.07892
450.595	436.85761
450.806	379.85345
451.017	396.74233
451.228	343.96815
451.439	369.29844
451.65	502.32091
451.861	434.74613
452.072	455.86158
452.283	489.64947
452.494	447.41521
452.705	441.0806
452.915	491.76134
453.126	379.85345
453.337	460.08485
453.548	432.63468
453.759	470.64331
453.97	506.54484
454.181	512.88085
454.391	521.32906
454.602	550.89955
454.813	561.4611
455.024	664.98142
455.235	536.11396
455.445	607.93586
455.656	489.64947
455.867	538.22615
456.078	523.44114
456.288	529.77749
456.499	550.89955
456.71	605.82323
456.921	574.1354
457.131	614.27381
457.342	652.30387
457.553	525.55324
457.763	612.16115
457.974	846.73576
458.184	715.6958
458.395	840.39428
458.606	829.82532
458.816	850.96346
459.027	808.68807
459.237	922.83945
459.448	812.91545
459.659	817.14286
459.869	886.90028
460.08	876.33038
460.29	960.89506
460.501	1034.89837
460.711	952.43805
460.922	901.69849
461.132	1087.76234
461.343	969.35217
461.553	937.63857
461.764	1189.26961
461.974	1017.98265
462.184	1020.09709
462.395	1159.66232
462.605	1375.3854
462.816	1083.5331
463.026	1140.62947
463.236	1307.70499
463.447	1316.16495
463.657	1269.63557
463.867	1487.48294
464.078	1163.89189
464.288	1432.4916
464.498	1476.90769
464.709	1523.43867
464.919	1256.94593
465.129	1472.67759
465.339	1464.21738
465.55	1584.77425
465.76	1540.35894
465.97	1542.47397
466.18	1519.2086
466.391	1737.04823
466.601	1603.80918
466.811	1789.91734
467.021	1849.12766
467.231	2041.53246
467.441	1834.32541
467.651	2005.59254
467.862	1825.86688
468.072	2197.95217
468.282	2189.49816
468.492	2208.51948
468.702	2028.848
468.912	2316.29339
469.122	2231.76682
469.332	2415.59233
469.542	2440.9416
469.752	2487.4112
469.962	2476.8504
470.172	2694.34375
470.382	2643.67723
470.592	2690.12182
470.802	2614.11842
471.012	2757.66642
471.222	2882.16541
471.432	2977.0889
471.642	2873.72634
471.852	3071.982
472.062	3069.8736
472.272	3335.40374
472.482	3419.64282
472.691	3531.21568
472.901	3348.04139
473.111	3377.52679
473.321	3461.75174
473.531	3592.24325
473.741	3487.01365
473.95	3920.25386
474.16	3558.5748
474.37	3966.47308
474.58	3874.02489
474.79	4033.68344
474.999	3840.39774
475.209	3857.21195
475.419	4096.67399
475.628	4457.45211
475.838	4044.18316
476.048	4272.94715
476.258	4348.44675
476.467	4599.90788
476.677	4869.87018
476.886	4731.79693
477.096	4846.86486
477.306	4957.68321
477.515	4903.32753
477.725	5066.34785
477.935	4857.32217
478.144	5139.45228
478.354	5095.59303
478.563	5427.41423
478.773	5348.16484
478.982	5414.90342
479.192	5648.29879
479.401	5635.80296
479.611	5631.63749
479.82	5704.51951
480.03	5706.60143
480.239	6130.81955
480.449	5835.63429
480.658	6130.81955
480.868	6263.70574
481.077	6647.2924
481.287	6377.82819
481.496	6527.11829
481.705	6522.97297
481.915	6605.86183
482.124	6444.19422
482.333	6593.43086
482.543	6754.96885
482.752	6945.32205
482.961	7052.82825
483.171	7149.94515
483.38	6883.27149
483.589	7257.3364
483.799	7168.53638
484.008	7418.31172
484.217	7469.87832
484.426	7498.74971
484.636	7443.06538
484.845	7585.33859
485.054	7523.49325
485.263	7943.66654
485.472	7842.82204
485.682	7978.64187
485.891	8235.63385
486.1	8095.86917
486.309	8060.91353
486.518	8167.81839
486.727	8118.48443
486.936	8494.36952
487.146	8338.34364
487.355	8730.25307
487.564	8486.16039
487.773	8898.29951
487.982	8590.80402
488.191	8939.2681
488.4	8976.13377
488.609	9101.02517
488.818	9076.46148
489.027	9211.53119
489.236	9174.70138
489.445	9438.52884
489.654	9348.57214
489.863	9659.19995
490.072	9469.18871
490.281	9540.71436
490.49	9695.96069
490.698	9702.087
490.907	9893.97553
491.116	10032.70711
491.325	9796.00649
491.534	9912.34092
491.743	9910.30038
491.952	10102.04803
492.16	10193.79785
492.369	10095.93037
492.578	10450.55125
492.787	10491.28658
492.996	10521.83472
493.204	10643.999
493.413	10839.37059
493.622	10937.01582
493.831	10707.09982
494.039	10660.2842
494.248	10674.53311
494.457	11187.11451
494.665	11028.53454
494.874	11187.11451
495.083	11321.24752
495.291	11213.5382
495.5	11309.05545
495.709	11211.50567
495.917	11241.99252
496.126	11432.99144
496.335	11562.9838
496.543	11739.63139
496.752	11489.86789
496.96	11806.61811
497.169	11629.99612
497.377	11824.88558
497.586	11812.70734
497.794	12080.56023
498.003	12033.89895
498.211	12374.6385
498.42	12202.26635
498.628	12173.87067
498.837	12303.66791
499.045	12254.9974
499.254	12218.49181
499.462	12407.0794
499.671	12453.71019
499.879	12506.41907
500.087	12508.44624
500.296	12705.05278
500.504	12575.33952
500.713	12666.54673
500.921	12986.69317
501.129	12553.04252
501.338	12674.65344
501.546	13245.95852
501.754	12623.9849
501.962	13033.28569
502.171	13059.61944
502.379	13168.9971
502.587	12931.99418
502.795	13039.36279
503.004	13004.92534
503.212	13499.07823
503.42	13369.48881
503.628	13553.74414
503.837	13460.60801
504.045	13199.37738
504.253	13215.57978
504.461	13523.37451
504.669	13598.28481
504.877	13762.26148
505.085	13731.89701
505.294	13924.19416
505.502	13604.3584
505.71	13855.37498
505.918	13855.37498
506.126	14280.38986
506.334	13873.59213
506.542	14243.96376
506.75	13816.91581
506.958	14353.2403
507.166	14241.94007
507.374	14211.5845
507.582	14351.21671
507.79	14108.37212
507.998	14061.82351
508.206	14322.88622
508.414	14160.99087
508.622	14434.18274
508.83	14452.39445
509.037	14824.70171
509.245	14337.05151
509.453	14739.72142
509.661	14505.00541
509.869	14968.35636
510.077	14638.55249
510.285	14844.93492
510.492	15107.96259
510.7	15205.07959
510.908	14966.33307
511.116	15144.38147
511.324	14931.93711
511.531	15085.70659
511.739	15199.00978
511.947	15103.91604
512.155	15029.05486
512.362	15136.28839
512.57	15178.77707
512.778	15103.91604
512.985	14942.05358
513.193	15267.80105
513.401	15316.35973
513.608	15368.96514
513.816	15366.94185
514.024	15571.29655
514.231	15518.68983
514.439	15923.37236
514.646	15731.1433
514.854	15589.50668
515.061	15316.35973
515.269	15769.58831
515.477	15706.86242
515.684	15969.91368
515.892	15834.33867
516.099	16103.47114
516.307	16073.11661
516.514	16083.23475
516.722	16109.54209
516.929	16154.06281
517.136	16322.03473
517.344	16188.46573
517.551	16295.72506
517.759	16301.7965
517.966	16473.82757
518.173	16512.28356
518.381	16247.15419
518.588	16613.48723
518.796	16552.76437
519.003	16745.06041
519.21	16815.91167
519.418	16554.78844
519.625	16761.25472
519.832	16738.98759
520.039	17014.31168
520.247	17026.45945
520.454	16828.0579
520.661	17328.16134
520.868	17265.38585
521.076	17401.06555
521.283	16987.99187
521.49	17109.47179
521.697	17366.63807
521.904	17528.65758
522.112	17445.62009
522.319	17710.954
522.526	17324.11122
522.733	17749.44222
522.94	17303.86081
523.147	17652.21114
523.354	17538.78447
523.561	17769.69967
523.768	17692.72316
523.975	17960.13643
524.183	17830.47405
524.39	17998.63272
524.597	17852.75876
524.804	17913.53737
525.011	17794.00905
525.218	17676.51819
525.425	18225.58454
525.632	17939.87574
525.838	18349.21161
526.045	18172.89523
526.252	18041.18274
526.459	18172.89523
526.666	18081.70803
526.873	18428.25919
527.08	18326.91717
527.287	18440.42086
527.494	18371.50649
527.701	18663.40951
527.907	18353.26519
528.114	18639.08119
528.321	18728.28778
528.528	18997.98164
528.735	19115.61479
528.941	18872.25089
529.148	18736.39784
529.355	18880.36209
529.562	18653.27264
529.768	19008.12189
529.975	18906.72391
530.182	19121.69963
530.388	19253.54699
530.595	19170.37972
530.802	19160.23784
531.008	19653.25249
531.215	19458.45201
531.422	19259.63267
531.628	19359.03737
531.835	19549.75995
532.042	19434.10465
532.248	19726.31259
532.455	19620.78307
532.661	19890.7177
532.868	19614.69517
533.074	19821.70479
533.281	19842.0022
533.487	19831.85344
533.694	20065.30144
533.9	20217.5801
534.107	19947.5555
534.313	20266.31427
534.52	20103.87646
534.726	20331.29692
534.933	20138.39224
535.139	20134.3315
535.345	20241.94688
535.552	20264.28363
535.758	20564.86378
535.965	20532.36421
536.171	20505.95909
536.377	20922.4294
536.584	20388.16027
536.79	20572.98884
536.996	20865.53538
537.203	20696.90428
537.409	20501.89683
537.615	20672.52625
537.821	20715.1882
538.028	21300.44977
538.234	21121.58385
538.44	20997.61574
538.646	20741.5989
538.853	20979.32665
539.059	21113.45433
539.265	21129.71344
539.471	21099.22782
539.677	21393.9603
539.883	20912.26952
540.09	21385.82861
540.296	21434.61969
540.502	21749.78373
540.708	21408.1909
540.914	21772.15379
541.12	21770.12013
541.326	21993.84594
541.532	21869.77407
541.738	21757.91824
541.944	21654.20788
542.15	22205.41078
542.356	22341.72867
542.562	22272.55036
542.768	22067.07532
542.974	22166.75649
543.18	21949.09707
543.386	22093.52047
543.592	22250.17005
543.798	22492.30777
544.004	22543.18355
544.21	22553.35897
544.415	22447.53894
544.621	22946.19714
544.827	22679.54156
545.033	22960.44756
545.239	22767.06321
545.445	23031.70213
545.651	22708.03628
545.856	23072.42085
546.062	22807.77314
546.268	23019.48677
546.474	22608.30779
546.679	22258.30829
546.885	22677.50625
547.091	22726.35467
547.297	22581.85063
547.502	22958.41178
547.708	22801.66657
547.914	22903.44688
548.119	23082.60074
548.325	23023.55854
548.531	22732.46086
548.736	23019.48677
548.942	22933.98263
549.147	22838.30649
549.353	23475.60636
549.559	23296.3973
549.764	23039.84577
549.97	23054.09726
550.175	23459.31362
550.381	23693.54057
550.586	23192.54878
550.792	23618.17621
550.997	23648.72883
551.203	23669.09763
551.408	24160.07373
551.614	23760.76089
551.819	23728.16882
552.025	24141.73557
552.23	24363.84578
552.435	24335.31609
552.641	24367.9215
552.846	24475.93168
553.052	24166.1865
553.257	24198.78835
553.462	24475.93168
553.668	24170.26169
553.873	24276.22052
554.078	24294.56028
554.283	24437.21021
554.489	24490.19771
554.694	24520.76822
554.899	24469.8177
555.105	24755.16079
555.31	24712.35623
555.515	24585.98719
555.72	24620.63582
555.925	24427.0205
556.131	24875.42687
556.336	25258.70116
556.541	25366.76594
556.746	25046.66724
556.951	25191.41859
557.156	24853.00376
557.361	25332.103
557.567	25230.15675
557.772	24789.81288
557.977	24742.93081
558.182	25120.06089
558.387	25032.39659
558.592	25289.28492
558.797	25187.34093
559.002	25026.28063
559.207	25240.35113
559.412	25476.87573
559.617	25079.28628
559.822	25264.81787
560.027	25556.40319
560.232	25580.87379
560.437	25258.70116
560.642	25815.39802
560.847	25837.83209
561.051	25792.96417
561.256	25786.84588
561.461	26094.82007
561.666	25642.05154
561.871	25890.85899
562.076	25438.13271
562.281	25489.11052
562.485	25560.4816
562.69	25376.96103
562.895	25491.14966
563.1	25554.36398
563.305	25497.26709
563.509	25688.95569
563.714	25693.03436
563.919	25858.22691
564.123	26121.33632
564.328	25933.68932
564.533	26051.98676
564.737	25854.14793
564.942	26013.23349
565.147	26653.76056
565.351	26425.2738
565.556	26266.16095
565.761	26111.13773
565.965	26347.75603
566.17	26043.82812
566.374	26241.68294
566.579	26039.74882
566.784	26359.99552
566.988	26408.95407
567.193	26300.83853
567.397	26333.4767
567.602	26712.92546
567.806	26239.64312
568.011	26625.19865
568.215	26670.08178
568.42	26364.07537
568.624	26698.64416
568.828	26192.72767
569.033	26488.51369
569.237	26959.79929
569.442	26839.42014
569.646	26541.55479
569.85	26933.27464
570.055	27180.16694
570.259	26668.04162
570.463	26800.65504
570.668	26731.28724
