Data from absorb_only_2.23.25_USB4F045381__38__0143.txt Node

Date: Sun Feb 23 19:18:48 EST 2025
User: ssocol
Spectrometer: USB4F04538
Trigger mode: 4
Integration Time (sec): 2.600000E-3
Scans to average: 1
Electric dark correction enabled: true
Nonlinearity correction enabled: true
Boxcar width: 0
XAxis mode: Wavelengths
Number of Pixels in Spectrum: 3648
>>>>>Begin Spectral Data<<<<<
345.52	53.21881
345.736	53.21881
345.952	53.21881
346.168	23.70949
346.384	25.81715
346.6	-54.2568
346.816	-45.82964
347.032	49.00291
347.248	-20.54576
347.464	-35.29512
347.68	-14.22423
347.896	55.32679
348.112	-5.79519
348.328	-14.22423
348.544	-5.79519
348.76	72.19148
348.975	19.49425
349.191	-26.86706
349.407	21.60186
349.623	61.65088
349.839	99.59967
350.055	-39.50901
350.27	61.65088
350.486	61.65088
350.702	103.81665
350.918	-3.68787
351.133	34.24801
351.349	44.78711
351.565	23.70949
351.781	23.70949
351.996	-18.43861
352.212	-1.58052
352.428	-20.54576
352.644	13.17157
352.859	15.2791
353.075	-37.40208
353.291	6.8491
353.506	19.49425
353.722	70.08331
353.938	2.63424
354.153	97.49122
354.369	32.14026
354.584	53.21881
354.8	59.54283
355.016	-1.58052
355.231	23.70949
355.447	72.19148
355.662	21.60186
355.878	19.49425
356.093	95.38278
356.309	57.4348
356.524	72.19148
356.74	17.38667
356.955	19.49425
357.171	-14.22423
357.386	55.32679
357.602	82.73264
357.817	32.14026
358.033	38.46358
358.248	55.32679
358.464	55.32679
358.679	11.06405
358.895	-3.68787
359.11	-14.22423
359.325	-18.43861
359.541	44.78711
359.756	-31.08114
359.972	55.32679
360.187	78.51611
360.402	49.00291
360.618	91.16598
360.833	65.86705
361.048	-10.00976
361.264	27.92483
361.479	19.49425
361.694	-16.33143
361.909	-14.22423
362.125	72.19148
362.34	49.00291
362.555	-5.79519
362.77	-14.22423
362.986	-35.29512
363.201	38.46358
363.416	-1.58052
363.631	78.51611
363.847	49.00291
364.062	4.74166
364.277	27.92483
364.492	84.84094
364.707	-26.86706
364.922	4.74166
365.138	-18.43861
365.353	82.73264
365.568	89.05761
365.783	0.52684
365.998	15.2791
366.213	-18.43861
366.428	38.46358
366.643	53.21881
366.858	11.06405
367.073	70.08331
367.288	44.78711
367.503	15.2791
367.718	38.46358
367.933	44.78711
368.148	46.895
368.363	30.03253
368.578	67.97517
368.793	23.70949
369.008	36.35578
369.223	-3.68787
369.438	32.14026
369.653	19.49425
369.868	-37.40208
370.083	15.2791
370.298	61.65088
370.513	40.5714
370.728	49.00291
370.943	27.92483
371.157	-12.11701
371.372	59.54283
371.587	11.06405
371.802	84.84094
372.017	36.35578
372.232	-39.50901
372.446	38.46358
372.661	8.95656
372.876	38.46358
373.091	72.19148
373.306	82.73264
373.52	49.00291
373.735	34.24801
373.95	61.65088
374.165	0.52684
374.379	19.49425
374.594	15.2791
374.809	-20.54576
375.023	11.06405
375.238	21.60186
375.453	-24.75999
375.667	72.19148
375.882	36.35578
376.097	53.21881
376.311	-7.90249
376.526	21.60186
376.741	23.70949
376.955	23.70949
377.17	-14.22423
377.384	53.21881
377.599	65.86705
377.813	15.2791
378.028	27.92483
378.242	44.78711
378.457	42.67924
378.672	78.51611
378.886	11.06405
379.101	65.86705
379.315	57.4348
379.53	-3.68787
379.744	61.65088
379.958	38.46358
380.173	6.8491
380.387	74.29967
380.602	44.78711
380.816	36.35578
381.031	72.19148
381.245	91.16598
381.459	4.74166
381.674	120.68545
381.888	25.81715
382.103	46.895
382.317	49.00291
382.531	38.46358
382.746	-22.65289
382.96	80.62436
383.174	51.11085
383.388	27.92483
383.603	44.78711
383.817	61.65088
384.031	25.81715
384.246	19.49425
384.46	-1.58052
384.674	108.03372
384.888	38.46358
385.103	17.38667
385.317	72.19148
385.531	-5.79519
385.745	-5.79519
385.959	44.78711
386.174	17.38667
386.388	-10.00976
386.602	72.19148
386.816	15.2791
387.03	-5.79519
387.244	36.35578
387.458	-24.75999
387.672	95.38278
387.887	30.03253
388.101	-5.79519
388.315	-35.29512
388.529	78.51611
388.743	95.38278
388.957	44.78711
389.171	51.11085
389.385	49.00291
389.599	51.11085
389.813	61.65088
390.027	65.86705
390.241	11.06405
390.455	51.11085
390.669	36.35578
390.883	40.5714
391.097	-28.97412
391.311	51.11085
391.525	70.08331
391.738	15.2791
391.952	63.75895
392.166	67.97517
392.38	63.75895
392.594	36.35578
392.808	86.94927
393.022	6.8491
393.236	-81.64228
393.449	27.92483
393.663	-10.00976
393.877	-10.00976
394.091	38.46358
394.305	-47.93647
394.518	15.2791
394.732	15.2791
394.946	61.65088
395.16	-1.58052
395.373	61.65088
395.587	23.70949
395.801	61.65088
396.015	44.78711
396.228	19.49425
396.442	70.08331
396.656	55.32679
396.869	30.03253
397.083	-20.54576
397.297	32.14026
397.51	36.35578
397.724	57.4348
397.938	36.35578
398.151	55.32679
398.365	30.03253
398.578	95.38278
398.792	65.86705
399.005	27.92483
399.219	46.895
399.433	30.03253
399.646	23.70949
399.86	-39.50901
400.073	-26.86706
400.287	95.38278
400.5	19.49425
400.714	72.19148
400.927	30.03253
401.141	38.46358
401.354	141.77339
401.567	11.06405
401.781	46.895
401.994	-1.58052
402.208	72.19148
402.421	97.49122
402.635	46.895
402.848	-5.79519
403.061	25.81715
403.275	82.73264
403.488	27.92483
403.701	-1.58052
403.915	78.51611
404.128	51.11085
404.341	-5.79519
404.555	101.70815
404.768	53.21881
404.981	19.49425
405.195	-18.43861
405.408	-39.50901
405.621	72.19148
405.834	21.60186
406.048	-47.93647
406.261	65.86705
406.474	-39.50901
406.687	-14.22423
406.9	70.08331
407.114	-1.58052
407.327	51.11085
407.54	61.65088
407.753	13.17157
407.966	23.70949
408.179	51.11085
408.392	63.75895
408.605	95.38278
408.819	78.51611
409.032	44.78711
409.245	89.05761
409.458	120.68545
409.671	-39.50901
409.884	59.54283
410.097	19.49425
410.31	49.00291
410.523	57.4348
410.736	-1.58052
410.949	105.92518
411.162	116.46812
411.375	40.5714
411.588	11.06405
411.801	49.00291
412.014	36.35578
412.227	95.38278
412.44	32.14026
412.653	25.81715
412.865	-22.65289
413.078	76.40788
413.291	32.14026
413.504	30.03253
413.717	8.95656
413.93	46.895
414.143	95.38278
414.356	36.35578
414.568	36.35578
414.781	40.5714
414.994	137.55563
415.207	95.38278
415.42	78.51611
415.632	6.8491
415.845	4.74166
416.058	55.32679
416.271	-3.68787
416.483	49.00291
416.696	44.78711
416.909	40.5714
417.121	74.29967
417.334	23.70949
417.547	51.11085
417.759	108.03372
417.972	34.24801
418.185	46.895
418.397	-14.22423
418.61	-22.65289
418.823	103.81665
419.035	-54.2568
419.248	70.08331
419.46	63.75895
419.673	-1.58052
419.885	95.38278
420.098	44.78711
420.311	23.70949
420.523	76.40788
420.736	59.54283
420.948	95.38278
421.161	44.78711
421.373	27.92483
421.586	70.08331
421.798	86.94927
422.01	-5.79519
422.223	40.5714
422.435	27.92483
422.648	6.8491
422.86	55.32679
423.073	21.60186
423.285	11.06405
423.497	49.00291
423.71	40.5714
423.922	139.6645
424.134	74.29967
424.347	21.60186
424.559	-5.79519
424.771	67.97517
424.984	-16.33143
425.196	55.32679
425.408	61.65088
425.621	78.51611
425.833	36.35578
426.045	55.32679
426.257	70.08331
426.47	78.51611
426.682	-10.00976
426.894	13.17157
427.106	86.94927
427.318	82.73264
427.531	141.77339
427.743	72.19148
427.955	-20.54576
428.167	135.44678
428.379	25.81715
428.591	27.92483
428.804	61.65088
429.016	46.895
429.228	89.05761
429.44	8.95656
429.652	74.29967
429.864	15.2791
430.076	46.895
430.288	46.895
430.5	36.35578
430.712	74.29967
430.924	49.00291
431.136	57.4348
431.348	76.40788
431.56	-14.22423
431.772	8.95656
431.984	49.00291
432.196	2.63424
432.408	84.84094
432.62	137.55563
432.832	61.65088
433.044	78.51611
433.256	55.32679
433.468	32.14026
433.679	15.2791
433.891	97.49122
434.103	53.21881
434.315	15.2791
434.527	86.94927
434.739	49.00291
434.95	53.21881
435.162	78.51611
435.374	129.12037
435.586	46.895
435.798	74.29967
436.009	15.2791
436.221	120.68545
436.433	78.51611
436.645	61.65088
436.856	13.17157
437.068	2.63424
437.28	80.62436
437.491	145.99124
437.703	78.51611
437.915	99.59967
438.126	34.24801
438.338	57.4348
438.55	23.70949
438.761	78.51611
438.973	30.03253
439.184	63.75895
439.396	129.12037
439.608	55.32679
439.819	38.46358
440.031	53.21881
440.242	70.08331
440.454	145.99124
440.665	114.35949
440.877	70.08331
441.088	34.24801
441.3	72.19148
441.511	11.06405
441.723	63.75895
441.934	97.49122
442.146	65.86705
442.357	112.25088
442.569	91.16598
442.78	65.86705
442.991	53.21881
443.203	70.08331
443.414	-10.00976
443.626	82.73264
443.837	59.54283
444.048	-5.79519
444.26	129.12037
444.471	78.51611
444.682	6.8491
444.894	145.99124
445.105	30.03253
445.316	-1.58052
445.528	89.05761
445.739	25.81715
445.95	99.59967
446.161	51.11085
446.373	112.25088
446.584	89.05761
446.795	74.29967
447.006	44.78711
447.217	91.16598
447.429	30.03253
447.64	36.35578
447.851	95.38278
448.062	95.38278
448.273	101.70815
448.484	137.55563
448.695	137.55563
448.907	99.59967
449.118	63.75895
449.329	-5.79519
449.54	99.59967
449.751	99.59967
449.962	67.97517
450.173	72.19148
450.384	127.01161
450.595	40.5714
450.806	148.10019
451.017	-3.68787
451.228	120.68545
451.439	36.35578
451.65	156.53622
451.861	139.6645
452.072	105.92518
452.283	112.25088
452.494	78.51611
452.705	103.81665
452.915	137.55563
453.126	86.94927
453.337	133.33796
453.548	129.12037
453.759	120.68545
453.97	143.8823
454.181	139.6645
454.391	99.59967
454.602	86.94927
454.813	183.95562
455.024	103.81665
455.235	114.35949
455.445	38.46358
455.656	105.92518
455.867	108.03372
456.078	103.81665
456.288	53.21881
456.499	145.99124
456.71	36.35578
456.921	154.42718
457.131	141.77339
457.342	122.79415
457.553	91.16598
457.763	89.05761
457.974	141.77339
458.184	127.01161
458.395	173.40929
458.606	190.28367
458.816	188.1743
459.027	120.68545
459.237	65.86705
459.448	139.6645
459.659	139.6645
459.869	148.10019
460.08	133.33796
460.29	148.10019
460.501	192.39306
460.711	152.31817
460.922	145.99124
461.132	148.10019
461.343	150.20917
461.553	145.99124
461.764	188.1743
461.974	139.6645
462.184	205.04983
462.395	162.86346
462.605	234.58507
462.816	226.14603
463.026	82.73264
463.236	148.10019
463.447	145.99124
463.657	198.72135
463.867	196.6119
464.078	232.47528
464.288	209.26891
464.498	181.84631
464.709	207.15936
464.919	124.90287
465.129	249.35413
465.339	217.70731
465.55	221.92663
465.76	281.00526
465.97	198.72135
466.18	272.56455
466.391	268.3443
466.601	243.02442
466.811	285.22573
467.021	331.65572
467.231	369.65026
467.441	249.35413
467.651	316.8816
467.862	302.10835
468.072	399.20538
468.282	386.5385
468.492	327.43445
468.702	428.76371
468.912	352.76311
469.122	356.9848
469.332	451.9903
469.542	382.31634
469.752	390.76073
469.962	352.76311
470.172	500.56096
470.382	407.65029
470.592	447.76714
470.802	394.98302
471.012	494.22521
471.222	542.8026
471.432	477.33052
471.642	418.2068
471.852	601.95012
472.062	494.22521
472.272	570.26265
472.482	612.51326
472.691	595.61239
472.901	500.56096
473.111	587.16227
473.321	656.88183
473.531	635.75326
473.741	705.48196
473.95	760.42827
474.16	751.97453
474.37	749.86112
474.58	830.17761
474.79	887.25261
474.999	863.99908
475.209	899.93677
475.419	825.95009
475.628	967.59026
475.838	931.6484
476.048	946.44774
476.258	931.6484
476.467	1147.32618
476.677	1047.93783
476.886	1094.45868
477.096	1176.93315
477.306	1236.14923
477.515	1126.17884
477.725	1227.68963
477.935	1204.426
478.144	1295.3676
478.354	1172.70354
478.563	1496.29563
478.773	1390.54317
478.982	1553.40159
479.192	1363.04772
479.401	1481.4903
479.611	1451.87957
479.82	1466.68494
480.03	1629.54132
480.239	1762.77816
480.449	1659.1505
480.658	1815.64606
480.868	1802.958
481.077	1845.2509
481.287	1625.3114
481.496	1999.60236
481.705	1855.82383
481.915	1942.51701
482.124	1794.49921
482.333	1984.80289
482.543	1942.51701
482.752	2217.32542
482.961	2115.87231
483.171	2314.53257
483.38	2035.54261
483.589	2331.43614
483.799	2268.04461
484.008	2500.43581
484.217	2251.13879
484.426	2437.06889
484.636	2344.11341
484.845	2565.90427
485.054	2399.04407
485.263	2631.36135
485.472	2625.02731
485.682	2758.01818
485.891	2711.58275
486.1	2599.69003
486.309	2937.36528
486.518	2909.94239
486.727	3053.35729
486.936	2785.45425
487.146	2909.94239
487.355	2985.8766
487.564	2842.42948
487.773	3171.40997
487.982	2973.22223
488.191	3238.84584
488.4	2998.53042
488.609	3354.711
488.818	3213.55937
489.027	3348.39243
489.236	3413.67681
489.445	3497.8895
489.654	3441.04908
489.863	3592.59394
490.072	3476.83903
490.281	3762.966
490.49	3529.46179
490.698	3659.91637
490.907	3571.55174
491.116	3693.5703
491.325	3741.93923
491.534	3767.17112
491.743	3584.17729
491.952	3870.17203
492.16	3865.96885
492.369	3947.91655
492.578	4080.22826
492.787	4176.78484
492.996	4113.81818
493.204	4382.34255
493.413	4222.94832
493.622	4264.9062
493.831	3954.21894
494.039	4292.17423
494.248	4197.76951
494.457	4373.95649
494.665	4392.82463
494.874	4499.71069
495.083	4451.51424
495.291	4529.04195
495.5	4470.37511
495.709	4585.59711
495.917	4457.80139
496.126	4692.37913
496.335	4541.61116
496.543	4746.79452
496.752	4635.85473
496.96	4843.03037
497.169	4803.28661
497.377	4807.47055
497.586	4813.74629
497.794	4943.39892
498.003	4847.21345
498.211	4981.0235
498.42	5102.20738
498.628	5066.69603
498.837	5010.2819
499.045	5158.59397
499.254	5129.3586
499.462	5079.23021
499.671	4997.74314
499.879	5348.5125
500.087	5079.23021
500.296	5325.5656
500.504	5162.77009
500.713	5394.39777
500.921	5319.30687
501.129	5429.84679
501.338	5252.53391
501.546	5634.06736
501.754	5344.34054
501.962	5559.07385
502.171	5413.16574
502.379	5794.36752
502.587	5556.99026
502.795	5692.37451
503.004	5554.90664
503.212	5688.21033
503.42	5577.82509
503.628	5719.43941
503.837	5727.76626
504.045	5910.86156
504.253	5906.70234
504.461	5838.06146
504.669	5671.55265
504.877	6010.65473
505.085	5829.7396
505.294	6002.34071
505.502	5846.38293
505.71	6230.8392
505.918	5910.86156
506.126	6081.30871
506.334	5802.69098
506.542	6261.97607
506.75	6014.8116
506.958	6095.85174
507.166	6033.51635
507.374	6309.70905
507.582	6251.5977
507.79	6218.38297
507.998	6305.55885
508.206	6322.1591
508.414	6056.37512
508.622	6380.2482
508.83	6353.28053
509.037	6575.12819
509.245	6270.27835
509.453	6459.05418
509.661	6411.35984
509.869	6419.65539
510.077	6388.54515
510.285	6628.99503
510.492	6434.17171
510.7	6481.86017
510.908	6400.98988
511.116	6838.09963
511.324	6270.27835
511.531	6550.2613
511.739	6427.95057
511.947	6573.05608
512.155	6558.55064
512.362	6548.18891
512.57	6753.24375
512.778	6898.09653
512.985	6809.12877
513.193	6980.81961
513.401	6769.80401
513.608	7106.90296
513.816	6869.1349
514.024	6902.23355
514.231	6945.66672
514.439	6956.00648
514.646	6980.81961
514.854	6962.21007
515.061	6931.1901
515.269	6993.22496
515.477	7022.16761
515.684	7020.10043
515.892	7179.20832
516.099	7232.90326
516.307	7092.43861
516.514	7445.47182
516.722	7129.63044
516.929	7377.39257
517.136	7365.01198
517.344	7286.58328
517.551	7104.83669
517.759	7398.02514
517.966	7311.35365
518.173	7288.6476
518.381	7230.83835
518.588	7499.09339
518.796	7241.1627
519.003	7377.39257
519.21	7402.1514
519.418	7542.39249
519.625	7468.15965
519.832	7680.47419
520.039	7612.47575
520.247	7517.65131
520.454	7575.37592
520.661	8063.31263
520.868	7624.84082
521.076	7937.83674
521.283	7736.09215
521.49	7859.6329
521.697	7801.9899
521.904	7989.27046
522.112	7457.84732
522.319	8102.37987
522.526	7814.34334
522.733	8155.82855
522.94	8120.88287
523.147	8129.10591
523.354	7902.8545
523.561	8266.79434
523.768	8053.03057
523.975	8324.30952
524.183	7964.58387
524.39	8118.82706
524.597	8223.64784
524.804	8344.84695
525.011	8250.3586
525.218	8295.55385
525.425	8122.93866
525.632	8468.03083
525.838	8291.44559
526.045	8445.4523
526.252	8422.87146
526.459	8470.08331
526.666	8371.54269
526.873	8453.66294
527.08	8367.43586
527.287	8640.37296
527.494	8375.64943
527.701	8845.37116
527.907	8394.12883
528.114	8779.79163
528.321	8472.13577
528.528	8882.25153
528.735	8609.60731
528.941	8837.17473
529.148	8537.80441
529.355	8841.27299
529.562	8796.18825
529.768	8896.59233
529.975	8640.37296
530.182	8759.29421
530.388	8771.59288
530.595	8853.5673
530.802	8931.41634
531.008	9127.97414
531.215	9166.85728
531.422	9279.37923
531.628	9168.90359
531.835	9199.59621
532.042	8941.65771
532.248	9320.28374
532.455	8972.37919
532.661	9377.53893
532.868	9211.87219
533.074	9594.1756
533.281	9424.56036
533.487	9428.64878
533.694	9222.1017
533.9	9483.83603
534.107	9334.59875
534.313	9598.26136
534.52	9379.58352
534.726	9502.22918
534.933	9361.18162
535.139	9780.01522
535.345	9263.01557
535.552	9581.91792
535.758	9716.7215
535.965	9726.93115
536.171	9436.82541
536.377	9990.21067
536.584	9802.47079
536.79	9743.26581
536.996	9875.94907
537.203	9706.51146
537.409	9622.77464
537.615	9820.84217
537.821	9939.20668
538.028	10298.08702
538.234	10008.56989
538.44	10214.52264
538.646	9900.43756
538.853	10135.01324
539.059	9569.65968
539.265	9929.00479
539.471	10130.93527
539.677	10108.50542
539.883	10067.71952
540.09	10020.80873
540.296	10214.52264
540.502	10414.22457
540.708	10302.16275
540.914	10532.35619
541.12	10249.17405
541.326	10723.72122
541.532	10275.66954
541.738	10324.57832
541.944	10589.36996
542.15	10507.9187
542.356	10597.51399
542.562	10483.47937
542.768	10587.33393
542.974	10656.55225
543.18	10648.40965
543.386	10672.83685
543.592	10540.50162
543.798	10683.01433
544.004	10727.79164
544.21	10953.62646
544.415	10648.40965
544.621	10817.32892
544.827	10947.52468
545.033	11053.27464
545.239	10870.22663
545.445	10947.52468
545.651	10768.49325
545.856	10821.39826
546.062	11000.40341
546.268	11150.86372
546.474	10656.55225
546.679	10670.80131
546.885	10939.38882
547.091	10851.91677
547.297	10658.58786
547.502	10772.56315
547.708	10886.50128
547.914	10965.82971
548.119	11152.89657
548.325	11138.66644
548.531	10784.77256
548.736	11185.42062
548.942	11002.43706
549.147	11032.94043
549.353	11406.92052
549.559	11232.16924
549.764	11236.23408
549.97	11069.54122
550.175	11081.74069
550.381	11165.0934
550.586	11081.74069
550.792	11417.07821
550.997	11158.99503
551.203	11593.78364
551.408	11169.15893
551.614	11441.45567
551.819	11467.86302
552.025	11528.79686
552.23	11622.21238
552.435	11622.21238
552.641	11565.3531
552.846	11705.45775
553.052	11547.07536
553.257	11543.01354
553.462	11573.47629
553.668	11863.78627
553.873	11597.845
554.078	11782.5987
554.283	11912.49236
554.489	12204.6326
554.694	11898.28691
554.899	11884.08105
555.105	11951.04799
555.31	11997.71669
555.515	11884.08105
555.72	11849.57942
555.925	11869.87479
556.131	12105.24173
556.336	11900.31628
556.541	12032.20824
556.746	11946.98964
556.951	11817.10508
557.156	11963.22284
557.361	12293.86654
557.567	12174.20872
557.772	12162.0387
557.977	11882.05161
558.182	12186.37847
558.387	12060.61135
558.592	12054.5251
558.797	12149.86842
559.002	12182.32192
559.207	12289.81075
559.412	12157.98197
559.617	11997.71669
559.822	12312.11723
560.027	12435.80168
560.232	12764.15885
560.437	12149.86842
560.642	12482.43031
560.847	12395.25219
561.051	12567.56944
561.256	12385.11439
561.461	12449.99337
561.666	12220.85799
561.871	12630.40312
562.076	12518.91989
562.281	12662.83112
562.485	12535.13681
562.69	12756.05316
562.895	12348.61693
563.1	12595.94667
563.305	12683.09784
563.509	12681.07119
563.714	12401.33478
563.919	12905.99394
564.123	12492.56652
564.328	12824.94862
564.533	12711.47025
564.737	12482.43031
564.942	12535.13681
565.147	12739.84152
565.351	12798.607
565.556	12814.81734
565.761	12616.21539
565.965	12948.53933
566.17	12429.71943
566.374	12847.23695
566.579	12563.51545
566.784	12768.21166
566.988	13043.75177
567.193	13039.7004
567.397	13169.33466
567.602	13305.0255
567.806	13213.89204
568.011	13365.77638
568.215	13183.51225
568.42	13033.62331
568.624	12873.57685
568.828	13169.33466
569.033	13047.80312
569.237	13193.63896
569.442	13061.98268
569.646	12891.81163
569.85	13092.36667
570.055	12982.97916
570.259	13248.32127
570.463	13274.64865
570.668	13244.27084
570.872	12952.59115
571.076	13219.96788
571.281	13219.96788
571.485	13236.16992
571.689	13543.95846
571.893	13248.32127
572.098	13404.25004
572.302	13258.44727
572.506	13240.22039
572.71	13161.23308
572.914	13529.78595
573.119	13359.70145
573.323	13396.15044
573.527	13264.52282
573.731	13774.74445
573.935	13570.27837
574.139	13479.16837
574.343	13300.97531
574.547	13851.66405
574.751	13434.62297
