Data from absorb_only_2.23.25_USB4F045381__46__0151.txt Node

Date: Sun Feb 23 19:21:03 EST 2025
User: ssocol
Spectrometer: USB4F04538
Trigger mode: 4
Integration Time (sec): 2.600000E-3
Scans to average: 1
Electric dark correction enabled: true
Nonlinearity correction enabled: true
Boxcar width: 0
XAxis mode: Wavelengths
Number of Pixels in Spectrum: 3648
>>>>>Begin Spectral Data<<<<<
345.52	-25.63794
345.736	-25.63794
345.952	-25.63794
346.168	-31.95906
346.384	-27.74501
346.6	-8.78052
346.816	-59.34802
347.032	12.29343
347.248	-44.60065
347.464	-0.35123
347.68	-2.45859
347.896	18.61609
348.112	-4.56592
348.328	58.66448
348.544	18.61609
348.76	-36.17303
348.975	48.12461
349.191	24.93896
349.407	-25.63794
349.623	18.61609
349.839	48.12461
350.055	-53.02787
350.27	-6.67324
350.486	-0.35123
350.702	-2.45859
350.918	-27.74501
351.133	-8.78052
351.349	-6.67324
351.565	-19.31659
351.781	50.23254
351.996	33.36978
352.212	31.26204
352.428	-0.35123
352.644	-80.41353
352.859	-17.20943
353.075	37.58533
353.291	1.75615
353.506	-53.02787
353.722	-12.99502
353.938	-10.88778
354.153	-8.78052
354.369	14.40096
354.584	24.93896
354.8	10.18593
355.016	-4.56592
355.231	-61.45468
355.447	20.72369
355.662	16.50851
355.878	31.26204
356.093	-19.31659
356.309	35.47754
356.524	16.50851
356.74	24.93896
356.955	29.15432
357.171	-10.88778
357.386	-0.35123
357.602	41.80097
357.817	81.85419
358.033	-48.81431
358.248	10.18593
358.464	35.47754
358.679	98.72115
358.895	14.40096
359.11	-10.88778
359.325	18.61609
359.541	22.83131
359.756	39.69314
359.972	43.90883
360.187	-0.35123
360.402	-38.27997
360.618	-6.67324
360.833	29.15432
361.048	43.90883
361.264	67.09678
361.479	5.97099
361.694	-15.10224
361.909	5.97099
362.125	-63.56133
362.34	-78.3071
362.555	-4.56592
362.77	-2.45859
362.986	60.77252
363.201	-65.66794
363.416	-19.31659
363.631	-2.45859
363.847	39.69314
364.062	27.04663
364.277	-44.60065
364.492	39.69314
364.707	24.93896
364.922	27.04663
365.138	-27.74501
365.353	67.09678
365.568	-10.88778
365.783	-6.67324
365.998	86.0708
366.213	-19.31659
366.428	31.26204
366.643	-34.06606
366.858	27.04663
367.073	-36.17303
367.288	-44.60065
367.503	64.98867
367.718	-36.17303
367.933	-42.49378
368.148	-4.56592
368.363	33.36978
368.578	22.83131
368.793	-2.45859
369.008	48.12461
369.223	-53.02787
369.438	22.83131
369.653	31.26204
369.868	1.75615
370.083	-10.88778
370.298	-36.17303
370.513	-53.02787
370.728	-27.74501
370.943	18.61609
371.157	-99.37029
371.372	-15.10224
371.587	48.12461
371.802	-50.9211
372.017	-23.53085
372.232	-67.77453
372.446	14.40096
372.661	-10.88778
372.876	-42.49378
373.091	-2.45859
373.306	14.40096
373.52	-6.67324
373.735	-25.63794
373.95	27.04663
374.165	46.01671
374.379	-61.45468
374.594	-27.74501
374.809	43.90883
375.023	-40.38689
375.238	-36.17303
375.453	-69.8811
375.667	31.26204
375.882	69.20492
376.097	-31.95906
376.311	88.17913
376.526	-36.17303
376.741	24.93896
376.955	-27.74501
377.17	22.83131
377.384	41.80097
377.599	-31.95906
377.813	52.34049
378.028	29.15432
378.242	60.77252
378.457	-67.77453
378.672	-31.95906
378.886	-12.99502
379.101	35.47754
379.315	75.52945
379.53	5.97099
379.744	12.29343
379.958	-15.10224
380.173	-0.35123
380.387	-27.74501
380.602	-53.02787
380.816	-34.06606
381.031	-74.09415
381.245	39.69314
381.459	-10.88778
381.674	16.50851
381.888	-59.34802
382.103	64.98867
382.317	33.36978
382.531	16.50851
382.746	-10.88778
382.96	-48.81431
383.174	37.58533
383.388	5.97099
383.603	71.31307
383.817	-2.45859
384.031	22.83131
384.246	33.36978
384.46	-25.63794
384.674	27.04663
384.888	-36.17303
385.103	50.23254
385.317	5.97099
385.531	31.26204
385.745	43.90883
385.959	12.29343
386.174	-23.53085
386.388	-36.17303
386.602	-57.24133
386.816	-42.49378
387.03	-69.8811
387.244	16.50851
387.458	50.23254
387.672	-15.10224
387.887	-36.17303
388.101	-0.35123
388.315	52.34049
388.529	27.04663
388.743	10.18593
388.957	-10.88778
389.171	-2.45859
389.385	88.17913
389.599	-57.24133
389.813	12.29343
390.027	-10.88778
390.241	-8.78052
390.455	-2.45859
390.669	-15.10224
390.883	-50.9211
391.097	-6.67324
391.311	-15.10224
391.525	-17.20943
391.738	35.47754
391.952	29.15432
392.166	-59.34802
392.38	1.75615
392.594	10.18593
392.808	-59.34802
393.022	20.72369
393.236	35.47754
393.449	-112.00696
393.663	48.12461
393.877	-15.10224
394.091	-8.78052
394.305	-12.99502
394.518	27.04663
394.732	50.23254
394.946	5.97099
395.16	-31.95906
395.373	-6.67324
395.587	48.12461
395.801	-6.67324
396.015	-53.02787
396.228	-10.88778
396.442	-76.20064
396.656	-12.99502
396.869	-31.95906
397.083	-40.38689
397.297	-42.49378
397.51	-53.02787
397.724	-46.70749
397.938	5.97099
398.151	22.83131
398.365	64.98867
398.578	8.07845
398.792	-46.70749
399.005	-10.88778
399.219	14.40096
399.433	-78.3071
399.646	43.90883
399.86	-46.70749
400.073	-6.67324
400.287	33.36978
400.5	8.07845
400.714	-69.8811
400.927	27.04663
401.141	-2.45859
401.354	-40.38689
401.567	5.97099
401.781	-8.78052
401.994	18.61609
402.208	-4.56592
402.421	-15.10224
402.635	-27.74501
402.848	-6.67324
403.061	67.09678
403.275	31.26204
403.488	16.50851
403.701	50.23254
403.915	-61.45468
404.128	52.34049
404.341	105.04662
404.555	52.34049
404.768	12.29343
404.981	-40.38689
405.195	-34.06606
405.408	69.20492
405.621	35.47754
405.834	14.40096
406.048	-36.17303
406.261	-57.24133
406.474	-12.99502
406.687	27.04663
406.9	39.69314
407.114	31.26204
407.327	71.31307
407.54	-6.67324
407.753	-36.17303
407.966	33.36978
408.179	39.69314
408.392	33.36978
408.605	16.50851
408.819	1.75615
409.032	5.97099
409.245	1.75615
409.458	73.42125
409.671	-6.67324
409.884	-27.74501
410.097	-6.67324
410.31	48.12461
410.523	43.90883
410.736	22.83131
410.949	14.40096
411.162	-12.99502
411.375	-27.74501
411.588	33.36978
411.801	-19.31659
412.014	18.61609
412.227	48.12461
412.44	27.04663
412.653	16.50851
412.865	31.26204
413.078	46.01671
413.291	111.37229
413.504	86.0708
413.717	-10.88778
413.93	-12.99502
414.143	12.29343
414.356	31.26204
414.568	27.04663
414.781	35.47754
414.994	24.93896
415.207	-6.67324
415.42	90.28749
415.632	-27.74501
415.845	22.83131
416.058	-6.67324
416.271	-27.74501
416.483	48.12461
416.696	14.40096
416.909	18.61609
417.121	-36.17303
417.334	-6.67324
417.547	20.72369
417.759	52.34049
417.972	39.69314
418.185	-40.38689
418.397	-17.20943
418.61	-23.53085
418.823	98.72115
419.035	-57.24133
419.248	50.23254
419.46	-12.99502
419.673	-19.31659
419.885	1.75615
420.098	-15.10224
420.311	-8.78052
420.523	20.72369
420.736	-17.20943
420.948	-38.27997
421.161	12.29343
421.373	-19.31659
421.586	46.01671
421.798	-2.45859
422.01	77.63768
422.223	8.07845
422.435	-34.06606
422.648	67.09678
422.86	14.40096
423.073	-46.70749
423.285	-6.67324
423.497	39.69314
423.71	35.47754
423.922	56.55646
424.134	12.29343
424.347	-2.45859
424.559	5.97099
424.771	1.75615
424.984	-19.31659
425.196	29.15432
425.408	81.85419
425.621	39.69314
425.833	-0.35123
426.045	-10.88778
426.257	-4.56592
426.47	-46.70749
426.682	-44.60065
426.894	43.90883
427.106	14.40096
427.318	41.80097
427.531	5.97099
427.743	31.26204
427.955	-19.31659
428.167	-36.17303
428.379	39.69314
428.591	-36.17303
428.804	-69.8811
429.016	39.69314
429.228	24.93896
429.44	-12.99502
429.652	-29.85205
429.864	31.26204
430.076	31.26204
430.288	-76.20064
430.5	33.36978
430.712	14.40096
430.924	56.55646
431.136	-2.45859
431.348	27.04663
431.56	-8.78052
431.772	41.80097
431.984	16.50851
432.196	56.55646
432.408	-23.53085
432.62	35.47754
432.832	18.61609
433.044	14.40096
433.256	48.12461
433.468	52.34049
433.679	-19.31659
433.891	73.42125
434.103	-25.63794
434.315	126.13296
434.527	14.40096
434.739	-19.31659
434.95	48.12461
435.162	98.72115
435.374	77.63768
435.586	-31.95906
435.798	-23.53085
436.009	54.44846
436.221	27.04663
436.433	73.42125
436.645	52.34049
436.856	64.98867
437.068	-31.95906
437.28	69.20492
437.491	-2.45859
437.703	14.40096
437.915	12.29343
438.126	-44.60065
438.338	20.72369
438.55	24.93896
438.761	35.47754
438.973	62.88058
439.184	-67.77453
439.396	-15.10224
439.608	16.50851
439.819	22.83131
440.031	-0.35123
440.242	-31.95906
440.454	-17.20943
440.665	-10.88778
440.877	8.07845
441.088	14.40096
441.3	31.26204
441.511	8.07845
441.723	31.26204
441.934	18.61609
442.146	98.72115
442.357	24.93896
442.569	3.86356
442.78	12.29343
442.991	33.36978
443.203	14.40096
443.414	33.36978
443.626	-6.67324
443.837	1.75615
444.048	81.85419
444.26	-0.35123
444.471	-6.67324
444.682	69.20492
444.894	-6.67324
445.105	35.47754
445.316	-4.56592
445.528	31.26204
445.739	-19.31659
445.95	50.23254
446.161	-19.31659
446.373	-36.17303
446.584	31.26204
446.795	5.97099
447.006	77.63768
447.217	-25.63794
447.429	-19.31659
447.64	16.50851
447.851	-4.56592
448.062	41.80097
448.273	48.12461
448.484	58.66448
448.695	35.47754
448.907	22.83131
449.118	35.47754
449.329	-23.53085
449.54	8.07845
449.751	20.72369
449.962	39.69314
450.173	-25.63794
450.384	46.01671
450.595	41.80097
450.806	126.13296
451.017	8.07845
451.228	56.55646
451.439	50.23254
451.65	24.93896
451.861	-19.31659
452.072	58.66448
452.283	81.85419
452.494	-34.06606
452.705	90.28749
452.915	69.20492
453.126	52.34049
453.337	88.17913
453.548	37.58533
453.759	48.12461
453.97	27.04663
454.181	115.58952
454.391	-25.63794
454.602	102.93811
454.813	64.98867
455.024	37.58533
455.235	60.77252
455.445	71.31307
455.656	50.23254
455.867	107.15516
456.078	56.55646
456.288	27.04663
456.499	83.96248
456.71	48.12461
456.921	90.28749
457.131	71.31307
457.342	5.97099
457.553	31.26204
457.763	29.15432
457.974	71.31307
458.184	-15.10224
458.395	81.85419
458.606	60.77252
458.816	10.18593
459.027	58.66448
459.237	37.58533
459.448	10.18593
459.659	73.42125
459.869	-40.38689
460.08	102.93811
460.29	81.85419
460.501	73.42125
460.711	60.77252
460.922	18.61609
461.132	69.20492
461.343	81.85419
461.553	113.4809
461.764	69.20492
461.974	60.77252
462.184	79.74592
462.395	64.98867
462.605	102.93811
462.816	8.07845
463.026	86.0708
463.236	35.47754
463.447	107.15516
463.657	119.80683
463.867	124.02423
464.078	117.69816
464.288	126.13296
464.498	115.58952
464.709	102.93811
464.919	111.37229
465.129	126.13296
465.339	151.43941
465.55	43.90883
465.76	69.20492
465.97	35.47754
466.18	83.96248
466.391	86.0708
466.601	54.44846
466.811	109.26371
467.021	107.15516
467.231	81.85419
467.441	50.23254
467.651	77.63768
467.862	147.22146
468.072	143.00359
468.282	157.7665
468.492	62.88058
468.702	166.20292
468.912	126.13296
469.122	145.11251
469.332	180.96744
469.542	94.50427
469.752	208.38993
469.962	149.33043
470.172	183.07674
470.382	134.5681
470.592	242.1453
470.802	216.8283
471.012	225.26699
471.222	242.1453
471.432	153.54842
471.642	183.07674
471.852	199.95188
472.062	185.18606
472.272	237.92561
472.482	250.58493
472.691	218.93794
472.901	225.26699
473.111	286.45672
473.321	292.78759
473.531	294.89792
473.741	191.51415
473.95	290.67728
474.16	284.34646
474.37	313.8917
474.58	318.11274
474.79	320.22329
474.999	303.33942
475.209	305.44984
475.419	353.99443
475.628	413.10444
475.838	334.99761
476.048	406.7706
476.258	391.99222
476.467	423.66115
476.677	396.21454
476.886	482.78599
477.096	514.46487
477.306	476.45062
477.515	451.11047
477.725	440.55273
477.935	438.44123
478.144	556.70836
478.354	495.45715
478.563	715.16749
478.773	573.6073
478.982	634.87293
479.192	630.64738
479.401	628.53462
479.611	706.71465
479.82	732.07367
480.03	748.98054
480.239	732.07367
480.449	696.14886
480.658	753.20736
480.868	818.72815
481.077	871.57399
481.287	698.262
481.496	977.28082
481.705	894.82784
481.915	981.50947
482.124	926.53919
482.333	841.97964
482.543	928.65334
482.752	1049.1713
482.961	1066.0877
483.171	1055.51491
483.38	1042.82774
483.589	1190.85574
483.799	1137.98605
484.008	1140.10079
484.217	1201.42996
484.426	1286.02648
484.636	1099.92152
484.845	1324.09619
485.054	1296.60134
485.263	1408.6973
485.472	1142.21553
485.682	1442.53809
485.891	1315.63621
486.1	1328.3262
486.309	1362.16646
486.518	1544.06024
486.727	1522.90992
486.936	1630.77505
487.146	1510.21968
487.355	1563.09543
487.564	1476.37892
487.773	1757.66746
487.982	1592.70549
488.191	1740.74914
488.4	1649.80956
488.609	1814.76495
488.818	1717.48608
489.027	1901.46222
489.236	1920.49217
489.445	1994.49306
489.654	1971.23644
489.863	2104.42245
490.072	1954.32206
490.281	2026.20538
490.49	2036.77582
490.698	2178.40207
490.907	2129.78798
491.116	2203.76422
491.325	2146.69771
491.534	2161.49331
491.743	2146.69771
491.952	2176.2885
492.16	2176.2885
492.369	2358.02278
492.578	2322.10404
492.787	2575.5828
492.996	2322.10404
493.204	2508.00397
493.413	2402.38898
493.622	2362.24833
493.831	2474.21015
494.039	2600.92174
494.248	2415.0642
494.457	2662.15024
494.665	2539.68303
494.874	2664.26138
495.083	2725.47887
495.291	2725.47887
495.5	2693.81601
495.709	2698.03789
495.917	2613.59056
496.126	2917.50151
496.335	2765.58091
496.543	2881.63798
496.752	2917.50151
496.96	2898.51545
497.169	2951.25157
497.377	2991.32484
497.586	2875.30869
497.794	2930.15822
498.003	2997.6517
498.211	2972.34344
498.42	2968.12518
498.628	3143.13108
498.837	3157.88565
499.045	3141.02322
499.254	2868.97927
499.462	3326.4517
499.671	3132.59162
499.879	3368.57623
500.087	3212.68132
500.296	3423.32764
500.504	3153.67014
500.713	3505.43214
500.921	3377.00029
501.129	3360.15188
501.338	3545.42177
501.546	3600.13361
501.754	3587.50891
501.962	3526.48014
502.171	3387.52999
502.379	3568.57062
502.587	3558.04869
502.795	3684.2809
503.004	3419.11641
503.212	3684.2809
503.42	3570.67495
503.628	3608.5497
503.837	3583.30053
504.045	3724.24019
504.253	3652.72922
504.461	3926.0318
504.669	3707.41607
504.877	3902.91914
505.085	3751.57674
505.294	3785.21721
505.502	3705.31297
505.71	4121.34019
505.918	3730.54891
506.126	4100.34786
506.334	3820.95472
506.542	4209.48503
506.75	3917.62748
506.958	3923.93075
507.166	4037.3584
507.374	4079.35345
507.582	4020.55807
507.79	4175.91043
507.998	4094.04975
508.206	4205.28851
508.414	4169.61459
508.622	4412.91378
508.83	4064.65612
509.037	4366.79312
509.245	3928.13283
509.453	4570.06351
509.661	4268.2275
509.869	4469.50196
510.077	4293.39771
510.285	4358.40641
510.492	4272.42275
510.7	4377.27601
510.908	4268.2275
511.116	4471.59751
511.324	4203.19021
511.531	4463.21517
511.739	4259.83674
511.947	4574.25247
512.155	4482.07493
512.362	4412.91378
512.57	4463.21517
512.778	4547.02266
512.985	4563.77991
513.193	4762.66279
513.401	4479.97949
513.608	4609.855
513.816	4507.21851
514.024	4628.70078
514.231	4653.82568
514.439	4628.70078
514.646	4607.76091
514.854	4846.34198
515.061	4611.94906
515.269	4791.95465
515.477	4718.71669
515.684	4829.60906
515.892	4685.22725
516.099	4980.15265
516.307	4737.55195
516.514	5136.8419
516.722	4808.69085
516.929	5036.57577
517.136	4791.95465
517.344	5082.53771
517.551	4888.1679
517.759	5272.53353
517.966	5174.4279
518.173	5122.22308
518.381	5101.33709
518.588	5107.60313
518.796	5047.02265
519.003	5247.49019
519.21	4873.52987
519.418	5322.61011
519.625	4948.79921
519.832	5214.09383
520.039	4988.51269
520.247	5358.07286
520.454	5278.79384
520.661	5626.95123
520.868	5324.69635
521.076	5541.53623
521.283	5374.75887
521.49	5303.83298
521.697	5358.07286
521.904	5347.64335
522.112	5385.18686
522.319	5708.16285
522.526	5472.75881
522.733	5776.85234
522.94	5608.20499
523.147	5458.16637
523.354	5672.76733
523.561	5710.24473
523.768	5739.38853
523.975	5789.33858
524.183	5551.95482
524.39	5899.59677
524.597	5756.04006
524.804	5905.83582
525.011	5564.45634
525.218	5710.24473
525.425	5724.81721
525.632	5924.55169
525.838	5724.81721
526.045	6080.44302
526.252	5822.63106
526.459	6088.7535
526.666	5949.50321
526.873	5949.50321
527.08	5706.08095
527.287	6173.91428
527.494	5991.08153
527.701	6161.45419
527.907	6130.30028
528.114	6196.75557
528.321	6124.06886
528.528	6244.50547
528.735	6124.06886
528.941	6207.13704
529.148	6043.04118
529.355	6229.97421
529.562	5997.31747
529.768	6165.60765
529.975	6138.60851
530.182	6259.03559
530.388	6138.60851
530.595	6265.26243
530.802	5895.43729
531.008	6470.6303
531.215	6221.67011
531.422	6350.34151
531.628	6225.82221
531.835	6476.85001
532.042	6412.56963
532.248	6406.34776
532.455	6398.05161
532.661	6710.97395
532.868	6379.38391
533.074	6630.20341
533.281	6570.12054
533.487	6742.03025
533.694	6433.30768
533.9	6984.09332
534.107	6665.41538
534.313	6785.50041
534.52	6868.27287
534.726	6814.47492
534.933	6847.58317
535.139	6779.291
535.345	6621.91727
535.552	6545.25299
535.758	6905.50862
535.965	6936.53279
536.171	6915.85057
536.377	6965.4841
536.584	6812.40546
536.79	6884.823
536.996	7091.5776
537.203	7044.04396
537.409	6944.80505
537.615	7103.97574
537.821	7031.64193
538.028	7258.88487
538.234	7176.2822
538.44	7314.62173
538.646	7205.19716
538.853	7374.46944
539.059	7017.17187
539.265	7250.6262
539.471	7027.50774
539.677	7081.24521
539.883	7044.04396
540.09	7347.64343
540.296	7355.89798
540.502	7238.23752
540.708	7289.85177
540.914	7679.61577
541.12	7151.49448
541.326	7570.3944
541.532	7471.42511
541.738	7681.67597
541.944	7652.83115
542.15	7603.37319
542.356	7663.13335
542.562	7751.71048
542.768	7597.19008
542.974	7689.91659
543.18	7605.43418
543.386	7825.83824
543.592	7541.53347
543.798	7817.60316
544.004	7500.29627
544.21	8013.09708
544.415	7729.05492
544.621	7827.89696
544.827	7741.41281
545.033	7895.82303
545.239	7640.4678
545.445	8157.02757
545.651	7531.22498
545.856	8138.52774
546.062	7809.36774
546.268	8134.41644
546.474	7957.55451
546.679	7858.77524
546.885	8103.57919
547.091	7957.55451
547.297	7702.27689
547.502	8076.84991
547.708	7879.35817
547.914	7945.20969
548.119	7984.29909
548.325	8113.85878
548.531	7926.69108
548.736	8407.64518
548.942	8111.8029
549.147	8056.28661
549.353	8097.4112
549.559	8171.41521
549.764	8189.91216
549.97	8337.83021
550.175	8152.91663
550.381	8253.61161
550.586	8167.30455
550.792	8378.90055
550.997	8288.53552
551.203	8383.00716
551.408	8272.10144
551.614	8341.9376
551.819	8309.07634
552.025	8442.54429
552.23	8052.1737
552.435	8407.64518
552.641	8680.53291
552.846	8526.68999
553.052	8450.75504
553.257	8397.37968
553.462	8586.18842
553.668	8524.63803
553.873	8380.95387
554.078	8483.59498
554.283	8598.49646
554.489	8842.46829
554.694	8651.82354
554.899	8809.68044
555.105	8832.22259
555.31	8619.00837
555.515	8830.17339
555.72	9004.29119
555.925	8426.12188
556.131	8850.66454
556.336	8633.3656
556.541	8821.97643
556.746	8614.90614
556.951	8893.69009
557.156	8684.63395
557.361	9000.19577
557.567	8975.62178
557.772	9002.24349
557.977	8705.13806
558.182	8938.75604
558.387	8813.77917
558.592	9110.74761
558.797	8934.65949
559.002	8926.46618
559.207	9024.76723
559.412	9006.33887
559.617	8961.28578
559.822	9053.43076
560.027	9143.49403
560.232	9123.02803
560.437	9241.7071
560.642	9014.52943
560.847	9188.5132
561.051	9139.40096
561.256	9077.99678
561.461	9268.29978
561.666	8789.18567
561.871	9388.95434
562.076	9384.8653
562.281	9433.92955
562.485	9290.79908
562.69	9292.84437
562.895	9204.88177
563.1	9174.18981
563.305	9008.38654
563.509	9415.53155
563.714	9366.46378
563.919	9026.81474
564.123	9147.58702
564.328	9619.88083
564.533	9186.46706
564.737	9442.10601
564.942	9270.34526
565.147	9732.20599
565.351	9474.80929
565.556	9505.46488
565.761	9245.79847
565.965	9560.63589
566.17	9435.97369
566.374	9166.00464
566.579	9482.98447
566.784	9460.50212
566.988	9746.49859
567.193	9658.68935
567.397	9378.73161
567.602	9435.97369
567.806	9123.02803
568.011	9705.66061
568.215	9654.60451
568.42	9675.0281
568.624	9621.92352
568.828	9775.08156
569.033	9245.79847
569.237	9803.66156
569.442	9711.7867
569.646	9781.20609
569.85	9677.07038
570.055	9760.79045
570.259	9968.96011
570.463	9664.8165
570.668	9525.89994
570.872	9901.62792
571.076	9748.54033
571.281	9950.59836
571.485	9719.9546
571.689	10026.07807
571.893	9766.9153
572.098	9860.81276
572.302	9536.11687
572.506	9773.04001
572.71	9670.94351
572.914	9948.55809
573.119	9926.11419
573.323	9995.48057
573.527	9724.03846
573.731	10144.35839
573.935	10246.28658
574.139	9985.28068
574.343	9711.7867
574.547	10134.16367
574.751	9868.97627
574.955	9983.24066
575.159	9889.38399
575.364	9852.64902
575.568	9999.56042
575.772	10452.07892
575.976	10058.71187
