Data from absorb_only_2.23.25_USB4F045381__37__0142.txt Node

Date: Sun Feb 23 19:18:44 EST 2025
User: ssocol
Spectrometer: USB4F04538
Trigger mode: 4
Integration Time (sec): 2.600000E-3
Scans to average: 1
Electric dark correction enabled: true
Nonlinearity correction enabled: true
Boxcar width: 0
XAxis mode: Wavelengths
Number of Pixels in Spectrum: 3648
>>>>>Begin Spectral Data<<<<<
345.52	-32.13465
345.736	-32.13465
345.952	-32.13465
346.168	-34.24164
346.384	50.05688
346.6	-17.38502
346.816	24.76332
347.032	31.08639
347.248	-48.98987
347.464	16.33288
347.68	14.22533
347.896	-2.6342
348.112	-13.17063
348.328	-2.6342
348.544	16.33288
348.76	-23.70644
348.975	5.79537
349.191	-55.31017
349.407	18.44046
349.623	-32.13465
349.839	41.62532
350.055	18.44046
350.27	3.68794
350.486	-13.17063
350.702	-13.17063
350.918	73.24557
351.133	56.38079
351.349	39.51749
351.565	92.22017
351.781	3.68794
351.996	22.65567
352.212	7.90283
352.428	41.62532
352.644	-13.17063
352.859	24.76332
353.075	-4.74153
353.291	12.11781
353.506	-76.37618
353.722	-84.80186
353.938	56.38079
354.153	-6.84884
354.369	62.70491
354.584	56.38079
354.8	18.44046
355.016	7.90283
355.231	20.54805
355.447	45.84105
355.662	-34.24164
355.878	-2.6342
356.093	-21.59933
356.309	18.44046
356.524	16.33288
356.74	22.65567
356.955	-27.92059
357.171	20.54805
357.386	-8.95613
357.602	-15.27784
357.817	-27.92059
358.033	-30.02763
358.248	-13.17063
358.464	-4.74153
358.679	43.73317
358.895	5.79537
359.11	54.2728
359.325	-4.74153
359.541	5.79537
359.756	-19.49219
359.972	45.84105
360.187	-27.92059
360.402	73.24557
360.618	20.54805
360.833	54.2728
361.048	-13.17063
361.264	33.19413
361.479	-95.33338
361.694	-21.59933
361.909	14.22533
362.125	-15.27784
362.34	45.84105
362.555	73.24557
362.77	-4.74153
362.986	94.32857
363.201	-48.98987
363.416	5.79537
363.631	28.97868
363.847	56.38079
364.062	-11.06339
364.277	28.97868
364.492	7.90283
364.707	37.40968
364.922	-2.6342
365.138	12.11781
365.353	31.08639
365.568	71.13739
365.783	1.58054
365.998	45.84105
366.213	-0.52684
366.428	5.79537
366.643	37.40968
366.858	16.33288
367.073	-21.59933
367.288	73.24557
367.503	-13.17063
367.718	28.97868
367.933	62.70491
368.148	20.54805
368.363	81.6785
368.578	52.16483
368.793	-6.84884
369.008	83.78679
369.223	35.30189
369.438	45.84105
369.653	81.6785
369.868	28.97868
370.083	-11.06339
370.298	14.22533
370.513	22.65567
370.728	54.2728
370.943	7.90283
371.157	14.22533
371.372	64.813
371.587	24.76332
371.802	37.40968
372.017	31.08639
372.232	20.54805
372.446	-4.74153
372.661	-0.52684
372.876	5.79537
373.091	-0.52684
373.306	-40.56246
373.52	66.92111
373.735	-2.6342
373.95	20.54805
374.165	-38.45555
374.379	50.05688
374.594	-51.09666
374.809	90.11179
375.023	-13.17063
375.238	45.84105
375.453	43.73317
375.667	22.65567
375.882	-11.06339
376.097	24.76332
376.311	81.6785
376.526	-19.49219
376.741	12.11781
376.955	-44.77622
377.17	-61.63024
377.384	37.40968
377.599	-27.92059
377.813	22.65567
378.028	39.51749
378.242	28.97868
378.457	83.78679
378.672	56.38079
378.886	-30.02763
379.101	12.11781
379.315	31.08639
379.53	-6.84884
379.744	39.51749
379.958	71.13739
380.173	-42.66935
380.387	45.84105
380.602	-27.92059
380.816	-4.74153
381.031	-13.17063
381.245	-8.95613
381.459	-11.06339
381.674	47.94895
381.888	5.79537
382.103	-21.59933
382.317	5.79537
382.531	16.33288
382.746	-25.81353
382.96	54.2728
383.174	71.13739
383.388	24.76332
383.603	-30.02763
383.817	56.38079
384.031	-8.95613
384.246	58.48881
384.46	28.97868
384.674	104.87091
384.888	1.58054
385.103	75.35377
385.317	-21.59933
385.531	45.84105
385.745	56.38079
385.959	-30.02763
386.174	-34.24164
386.388	52.16483
386.602	-13.17063
386.816	96.437
387.03	73.24557
387.244	3.68794
387.458	37.40968
387.672	-2.6342
387.887	22.65567
388.101	-13.17063
388.315	-21.59933
388.529	54.2728
388.743	-25.81353
388.957	28.97868
389.171	47.94895
389.385	7.90283
389.599	-34.24164
389.813	-0.52684
390.027	12.11781
390.241	-4.74153
390.455	-17.38502
390.669	5.79537
390.883	37.40968
391.097	45.84105
391.311	-95.33338
391.525	22.65567
391.738	-11.06339
391.952	39.51749
392.166	-38.45555
392.38	83.78679
392.594	-19.49219
392.808	-19.49219
393.022	-19.49219
393.236	47.94895
393.449	52.16483
393.663	14.22533
393.877	28.97868
394.091	71.13739
394.305	128.06598
394.518	39.51749
394.732	7.90283
394.946	39.51749
395.16	-13.17063
395.373	5.79537
395.587	37.40968
395.801	-13.17063
396.015	43.73317
396.228	58.48881
396.442	56.38079
396.656	5.79537
396.869	37.40968
397.083	1.58054
397.297	-6.84884
397.51	77.46199
397.724	22.65567
397.938	24.76332
398.151	-51.09666
398.365	12.11781
398.578	12.11781
398.792	-30.02763
399.005	-8.95613
399.219	98.54544
399.433	50.05688
399.646	66.92111
399.86	-21.59933
400.073	28.97868
400.287	24.76332
400.5	54.2728
400.714	-4.74153
400.927	7.90283
401.141	62.70491
401.354	28.97868
401.567	-4.74153
401.781	45.84105
401.994	26.87099
402.208	3.68794
402.421	-23.70644
402.635	58.48881
402.848	41.62532
403.061	-13.17063
403.275	28.97868
403.488	-27.92059
403.701	62.70491
403.915	37.40968
404.128	75.35377
404.341	5.79537
404.555	54.2728
404.768	-46.88306
404.981	22.65567
405.195	7.90283
405.408	-46.88306
405.621	41.62532
405.834	-21.59933
406.048	14.22533
406.261	20.54805
406.474	22.65567
406.687	14.22533
406.9	39.51749
407.114	-15.27784
407.327	66.92111
407.54	20.54805
407.753	7.90283
407.966	26.87099
408.179	37.40968
408.392	66.92111
408.605	20.54805
408.819	88.00344
409.032	-13.17063
409.245	-74.26969
409.458	14.22533
409.671	66.92111
409.884	130.17476
410.097	14.22533
410.31	56.38079
410.523	5.79537
410.736	-21.59933
410.949	5.79537
411.162	22.65567
411.375	71.13739
411.588	37.40968
411.801	88.00344
412.014	16.33288
412.227	16.33288
412.44	41.62532
412.653	35.30189
412.865	45.84105
413.078	-95.33338
413.291	45.84105
413.504	-19.49219
413.717	5.79537
413.93	-25.81353
414.143	79.57023
414.356	5.79537
414.568	5.79537
414.781	77.46199
414.994	33.19413
415.207	12.11781
415.42	-0.52684
415.632	-30.02763
415.845	35.30189
416.058	12.11781
416.271	20.54805
416.483	-42.66935
416.696	-13.17063
416.909	-8.95613
417.121	54.2728
417.334	83.78679
417.547	22.65567
417.759	73.24557
417.972	-8.95613
418.185	20.54805
418.397	52.16483
418.61	45.84105
418.823	3.68794
419.035	5.79537
419.248	1.58054
419.46	24.76332
419.673	3.68794
419.885	28.97868
420.098	18.44046
420.311	-42.66935
420.523	-25.81353
420.736	-19.49219
420.948	-6.84884
421.161	77.46199
421.373	52.16483
421.586	115.4138
421.798	-21.59933
422.01	20.54805
422.223	-34.24164
422.435	39.51749
422.648	-30.02763
422.86	45.84105
423.073	-4.74153
423.285	-8.95613
423.497	28.97868
423.71	16.33288
423.922	64.813
424.134	28.97868
424.347	41.62532
424.559	-6.84884
424.771	37.40968
424.984	52.16483
425.196	12.11781
425.408	7.90283
425.621	-0.52684
425.833	47.94895
426.045	45.84105
426.257	60.59685
426.47	31.08639
426.682	62.70491
426.894	71.13739
427.106	58.48881
427.318	79.57023
427.531	47.94895
427.743	71.13739
427.955	79.57023
428.167	71.13739
428.379	54.2728
428.591	115.4138
428.804	54.2728
429.016	56.38079
429.228	41.62532
429.44	79.57023
429.652	113.30518
429.864	43.73317
430.076	41.62532
430.288	109.088
430.5	71.13739
430.712	52.16483
430.924	66.92111
431.136	45.84105
431.348	10.01031
431.56	39.51749
431.772	-13.17063
431.984	35.30189
432.196	71.13739
432.408	58.48881
432.62	54.2728
432.832	90.11179
433.044	20.54805
433.256	104.87091
433.468	33.19413
433.679	12.11781
433.891	37.40968
434.103	54.2728
434.315	33.19413
434.527	75.35377
434.739	22.65567
434.95	24.76332
435.162	39.51749
435.374	98.54544
435.586	31.08639
435.798	1.58054
436.009	56.38079
436.221	31.08639
436.433	104.87091
436.645	7.90283
436.856	64.813
437.068	24.76332
437.28	22.65567
437.491	92.22017
437.703	62.70491
437.915	5.79537
438.126	104.87091
438.338	12.11781
438.55	20.54805
438.761	54.2728
438.973	41.62532
439.184	-19.49219
439.396	100.65391
439.608	172.35468
439.819	37.40968
440.031	113.30518
440.242	73.24557
440.454	43.73317
440.665	121.73979
440.877	28.97868
441.088	54.2728
441.3	71.13739
441.511	71.13739
441.723	71.13739
441.934	71.13739
442.146	134.39237
442.357	90.11179
442.569	64.813
442.78	35.30189
442.991	31.08639
443.203	56.38079
443.414	102.7624
443.626	45.84105
443.837	83.78679
444.048	20.54805
444.26	81.6785
444.471	102.7624
444.682	28.97868
444.894	35.30189
445.105	26.87099
445.316	62.70491
445.528	41.62532
445.739	14.22533
445.95	31.08639
446.161	39.51749
446.373	104.87091
446.584	128.06598
446.795	111.19658
447.006	98.54544
447.217	37.40968
447.429	45.84105
447.64	96.437
447.851	71.13739
448.062	138.61006
448.273	-17.38502
448.484	71.13739
448.695	100.65391
448.907	24.76332
449.118	24.76332
449.329	54.2728
449.54	79.57023
449.751	66.92111
449.962	111.19658
450.173	157.59075
450.384	66.92111
450.595	140.71894
450.806	47.94895
451.017	33.19413
451.228	130.17476
451.439	88.00344
451.65	90.11179
451.861	45.84105
452.072	81.6785
452.283	43.73317
452.494	88.00344
452.705	117.52244
452.915	20.54805
453.126	100.65391
453.337	140.71894
453.548	31.08639
453.759	104.87091
453.97	47.94895
454.181	66.92111
454.391	75.35377
454.602	52.16483
454.813	113.30518
455.024	71.13739
455.235	130.17476
455.445	79.57023
455.656	130.17476
455.867	77.46199
456.078	155.4817
456.288	62.70491
456.499	96.437
456.71	37.40968
456.921	117.52244
457.131	45.84105
457.342	128.06598
457.553	33.19413
457.763	58.48881
457.974	37.40968
458.184	125.95723
458.395	45.84105
458.606	159.69982
458.816	166.02716
459.027	66.92111
459.237	147.04571
459.448	96.437
459.659	54.2728
459.869	125.95723
460.08	140.71894
460.29	121.73979
460.501	185.01029
460.711	73.24557
460.922	96.437
461.132	113.30518
461.343	159.69982
461.553	100.65391
461.764	130.17476
461.974	168.13631
462.184	115.4138
462.395	161.80891
462.605	208.21413
462.816	155.4817
463.026	163.91802
463.236	218.76214
463.447	138.61006
463.657	218.76214
463.867	216.6525
464.078	191.33836
464.288	212.43327
464.498	159.69982
464.709	250.4091
464.919	197.66663
465.129	239.85962
465.339	147.04571
465.55	201.88557
465.76	157.59075
465.97	185.01029
466.18	231.42039
466.391	292.61173
466.601	231.42039
466.811	222.98148
467.021	324.26855
467.231	324.26855
467.441	294.72206
467.651	311.60534
467.862	339.04311
468.072	362.262
468.282	286.28086
468.492	265.17916
468.702	370.70575
468.912	370.70575
469.122	326.37915
469.332	431.93086
469.542	341.15383
469.752	286.28086
469.962	402.37219
470.172	415.03981
470.382	429.81942
470.592	425.5966
470.802	444.59982
471.012	501.61693
471.222	410.8172
471.432	495.28116
471.642	415.03981
471.852	450.9345
472.062	431.93086
472.272	577.65613
472.482	603.00642
472.691	693.85964
472.901	484.72183
473.111	603.00642
473.321	672.72903
473.531	695.97277
473.741	645.26097
473.95	729.78425
474.16	731.89756
474.37	803.75619
474.58	719.21786
474.79	881.96763
474.999	712.87816
475.209	850.25884
475.419	774.16594
475.628	949.61908
475.838	939.04803
476.048	1017.27783
476.258	1021.50672
476.467	1032.07905
476.677	1095.516
476.886	1245.66633
477.096	1072.25523
477.306	1169.53134
477.515	1186.44984
477.725	1228.74708
477.935	1249.89617
478.144	1311.22997
478.354	1330.26495
478.563	1359.87518
478.773	1355.64513
478.982	1406.406
479.192	1326.03495
479.401	1554.4591
479.611	1450.82205
479.82	1558.68914
480.03	1410.63609
480.239	1795.55657
480.449	1721.53952
480.658	1679.24216
480.868	1658.09304
481.077	1880.14111
481.287	1772.29457
481.496	1871.683
481.705	1846.3082
481.915	1939.34547
482.124	1863.22481
482.333	2091.56312
482.543	1958.3745
482.752	2165.54441
482.961	2176.11237
483.171	2319.81501
483.38	2146.52157
483.589	2224.72229
483.799	2226.83566
484.008	2362.07226
484.217	2412.77565
484.426	2486.70716
484.636	2286.00641
484.845	2623.97162
485.054	2455.02385
485.263	2695.75104
485.472	2564.84842
485.682	2900.44927
485.891	2742.18864
486.1	2746.40992
486.309	2792.8405
486.518	2820.27364
486.727	2801.28171
486.936	2997.47595
487.146	2851.92436
487.355	2936.3106
487.564	2959.51273
487.773	3126.09209
487.982	3022.78205
488.191	3115.55198
488.4	3098.68698
488.609	3265.18335
488.818	3311.53094
489.027	3416.83531
489.236	3482.10181
489.445	3507.36162
489.654	3345.23308
489.863	3642.03573
490.072	3479.99671
490.281	3694.62191
490.49	3576.81247
490.698	3536.82806
490.907	3629.41329
491.116	3867.01965
491.325	3801.86039
491.534	3812.37123
491.743	3684.10563
491.952	3997.28043
492.16	3930.05876
492.369	3940.56352
492.578	3917.45239
492.787	4156.84744
492.996	4032.98344
493.204	4393.87281
493.413	4182.03121
493.622	4341.45722
493.831	4085.47703
494.039	4226.09546
494.248	4207.21192
494.457	4626.43241
494.665	4408.54674
494.874	4502.85353
495.083	4383.39078
495.291	4645.2766
495.5	4689.23931
495.709	4492.3772
495.917	4387.58366
496.126	4588.73859
496.335	4701.79827
496.543	4649.46395
496.752	4511.2342
496.96	4804.3326
497.169	4787.59602
497.377	4877.53801
497.586	4584.54994
497.794	5190.95639
498.003	4846.16769
498.211	4800.14859
498.42	4848.2592
498.628	5224.35689
498.837	4996.69821
499.045	5111.60632
499.254	5030.13324
499.462	5341.21152
499.671	5167.99009
499.879	5222.26953
500.087	5063.56236
500.296	5391.26959
500.504	5295.31309
500.713	5591.36647
500.921	5199.30708
501.129	5245.22917
501.338	5157.54993
501.546	5691.33348
501.754	5280.70667
501.962	5655.93471
502.171	5420.46388
502.379	5778.76002
502.587	5510.10327
502.795	5639.27411
503.004	5299.48615
503.212	5553.86483
503.42	5520.52363
503.628	5737.13352
503.837	5530.9434
504.045	5859.90452
504.253	5639.27411
504.461	5805.81217
504.669	5949.32995
504.877	6009.6155
505.085	6057.41409
505.294	5849.50339
505.502	5803.73138
505.71	6028.32078
505.918	5861.98468
506.126	6194.50618
506.334	5988.82961
506.542	6161.28113
506.75	6152.97393
506.958	6107.2776
507.166	6024.16421
507.374	6287.91944
507.582	6231.87718
507.79	6323.19656
507.998	6254.71127
508.206	6424.83992
508.414	6283.76875
508.622	6493.26212
508.83	6260.93826
509.037	6449.72365
509.245	6343.94465
509.453	6538.86287
509.661	6501.554
509.869	6652.81578
510.077	6372.98806
510.285	6837.06504
510.492	6482.89674
510.7	6627.95928
510.908	6412.3968
511.116	6435.20855
511.324	6580.30837
511.531	6708.7308
511.739	6484.96986
511.947	6553.36985
512.155	6561.65904
512.362	6580.30837
512.57	6683.88175
512.778	6824.64943
512.985	6727.36542
513.193	6721.15408
513.401	6824.64943
513.608	6685.95263
513.816	6961.17615
514.024	6880.51321
514.231	6957.04043
514.439	6882.58192
514.646	6899.13079
514.854	7244.25989
515.061	6661.10054
515.269	6923.95138
515.477	6882.58192
515.684	7095.53821
515.892	7072.80668
516.099	7231.87081
516.307	7335.08897
516.514	7386.6775
516.722	7281.42239
516.929	7269.03568
517.136	7178.17557
517.344	7388.74075
517.551	7221.54596
517.759	7399.05671
517.966	7504.24854
518.173	7493.9381
518.381	7320.64173
518.588	7454.75352
518.796	7330.9613
519.003	7498.06234
519.21	7487.75158
519.418	7502.1865
519.625	7483.62713
519.832	7584.65153
520.039	7667.08238
520.247	7778.31036
520.454	7786.54703
520.661	7903.88347
520.868	7634.11412
521.076	7827.7254
521.283	7660.90125
521.49	7947.09576
521.697	7695.92516
521.904	8078.73478
522.112	7578.46784
522.319	8136.3008
522.526	8004.69808
522.733	8128.07804
522.94	8175.35451
523.147	8144.52323
523.354	8097.23986
523.561	8302.74313
523.768	8148.63433
523.975	8265.76714
524.183	8056.11524
524.39	8294.52679
524.597	8308.90518
524.804	8399.26172
525.011	8047.88934
525.218	8218.51077
525.425	8086.95946
525.632	8296.58091
525.838	8185.6306
526.045	8261.65831
526.252	8399.26172
526.459	8655.75421
526.666	8288.36433
526.873	8493.68544
527.08	8292.47266
527.287	8698.81616
527.494	8372.56938
527.701	8733.66987
527.907	8557.29605
528.114	8559.3477
528.321	8649.60183
528.528	9055.30742
528.735	8944.73004
528.941	8774.66745
529.148	8618.83745
529.355	8784.9157
529.562	8657.80496
529.768	8907.85948
529.975	8719.31898
530.182	9106.48343
530.388	8918.10188
530.595	8881.22716
530.802	8499.8421
531.008	9126.95081
531.215	9081.92029
531.422	9284.49266
531.628	9171.97302
531.835	9300.85493
532.042	9178.11178
532.248	9382.65037
532.455	9034.83398
532.661	9294.7192
532.868	9124.90415
533.074	9370.38273
533.281	9241.53663
533.487	9476.68279
533.694	9309.03566
533.9	9619.7106
534.107	9266.08384
534.313	9752.45362
534.52	9460.33179
534.726	9601.32565
534.933	9617.66789
535.139	9576.81039
535.345	9664.6463
535.552	9629.92392
535.758	9746.32845
535.965	9825.94512
536.171	9803.49145
536.377	9834.10964
536.584	9482.81415
536.79	9748.37019
536.996	9832.06853
537.203	9911.66075
537.409	9868.8062
537.615	9836.15073
537.821	9927.98458
538.028	10087.09352
538.234	9864.72447
538.44	10011.62965
538.646	9889.21393
538.853	9995.31057
539.059	9660.56155
539.265	10054.46289
539.471	9987.15068
539.677	9972.87033
539.883	10023.86836
540.09	10301.14383
540.296	10029.98752
540.502	10431.53967
540.708	10286.87849
540.914	10549.66499
541.12	10244.0785
541.326	10637.21327
541.532	10411.16886
541.738	10417.28024
541.944	10231.84884
542.15	10696.2446
542.356	10804.10326
542.562	10795.96415
542.768	10403.02018
542.974	10360.23613
543.18	10374.49812
543.386	10936.33782
543.592	10657.57006
543.798	10844.79602
544.004	10789.85969
544.21	10899.72388
544.415	10755.26575
544.621	11021.75615
544.827	10918.03131
545.033	10977.01568
545.239	10842.76149
545.445	11082.7573
545.651	10816.31158
545.856	11113.2542
546.062	10867.17505
546.268	11237.25028
546.474	10891.58695
546.679	10765.44079
546.885	10765.44079
547.091	11023.78968
547.297	10708.4567
547.502	11235.21787
547.708	11206.76306
547.914	10964.81279
548.119	10871.24382
548.325	11111.22115
548.531	10738.98506
548.736	11013.62192
548.942	11023.78968
549.147	11135.61706
549.353	11105.12193
549.559	11070.55785
549.764	11306.34605
549.97	11216.92573
550.175	11101.05573
550.381	11444.50276
550.586	11377.46184
550.792	11371.36668
550.997	11422.15697
551.203	11611.04416
551.408	11428.25139
551.614	11615.10536
551.819	11647.59367
552.025	11623.22765
552.23	11572.4609
552.435	11759.25474
552.641	11939.88745
552.846	11556.21432
553.052	11716.62367
553.257	11669.92803
553.462	11700.38224
553.668	11856.68289
553.873	11580.58397
554.078	12065.68317
554.283	11755.1948
554.489	11919.59493
554.694	12012.93383
554.899	12242.15311
555.105	12041.33798
555.31	11992.64421
555.515	11950.03341
555.72	11915.53633
555.925	11854.65334
556.131	12152.91102
556.336	12002.78912
556.541	12349.63078
556.746	12146.82581
556.951	12106.25601
557.156	11937.85824
557.361	12260.40544
557.567	12234.04078
557.772	12019.02057
557.977	12290.8247
558.182	12163.05288
558.387	12098.14169
558.592	12110.31313
558.797	12288.7968
559.002	12298.93623
559.207	12410.45856
559.412	12501.68896
559.617	12087.99861
559.822	12396.26596
560.027	12416.541
560.232	12266.48942
560.437	12154.9394
560.642	12292.85259
560.847	12669.92454
561.051	12489.52567
561.256	12515.87917
561.461	12440.87018
561.666	12477.36215
561.871	12582.77168
562.076	12564.52895
562.281	12560.47494
562.485	12250.26533
562.69	12631.41652
562.895	12371.93501
563.1	12755.03995
563.305	12540.20451
563.509	12669.92454
563.714	12633.44331
563.919	12692.21767
564.123	12609.12141
564.328	12746.93416
564.533	12475.33488
564.737	12694.24428
564.942	12671.95121
565.147	12609.12141
565.351	12953.6041
565.556	12576.69082
565.761	12718.56317
565.965	12540.20451
566.17	12615.20197
566.374	12627.36292
566.579	12639.52365
566.784	12957.6559
566.988	12848.25004
567.193	13188.57562
567.397	12935.37077
567.602	13277.68638
567.806	12748.96061
568.011	13115.66033
568.215	13125.78781
568.42	13034.63616
568.624	13324.26368
568.828	13046.79028
569.033	12979.94041
569.237	13190.60096
569.442	13344.51399
569.646	12937.39671
569.85	12886.74646
570.055	13083.25159
570.259	13054.89293
570.463	13172.37273
570.668	12996.14694
570.872	13204.77821
571.076	13180.47421
571.281	13050.84162
571.485	13208.82882
571.689	13516.6256
571.893	13139.96609
572.098	13370.83878
572.302	13030.58475
572.506	13435.63539
572.71	13291.86232
572.914	13362.73892
573.119	13571.29066
573.323	13429.56088
573.527	13433.61055
573.731	13520.67495
573.935	13423.48633
574.139	13696.80831
574.343	13277.68638
574.547	13710.97886
