Data from absorb_only_2.23.25_USB4F045381__15__0120.txt Node

Date: Sun Feb 23 19:14:33 EST 2025
User: ssocol
Spectrometer: USB4F04538
Trigger mode: 4
Integration Time (sec): 2.600000E-3
Scans to average: 1
Electric dark correction enabled: true
Nonlinearity correction enabled: true
Boxcar width: 0
XAxis mode: Wavelengths
Number of Pixels in Spectrum: 3648
>>>>>Begin Spectral Data<<<<<
345.52	21.07496
345.736	21.07496
345.952	21.07496
346.168	-14.75104
346.384	-6.32202
346.6	27.39791
346.816	2.10739
347.032	-31.6079
347.248	-31.6079
347.464	37.93663
347.68	31.61332
347.896	-40.03573
348.112	23.18258
348.328	-25.28676
348.544	-35.82187
348.76	14.75222
348.975	27.39791
349.191	-25.28676
349.407	77.98905
349.623	-27.39383
349.839	52.69182
350.055	-29.50088
350.27	27.39791
350.486	10.53718
350.702	-54.78349
350.918	33.72107
351.133	-21.07254
351.349	-18.9654
351.565	-33.71489
351.781	-16.85823
351.996	14.75222
352.212	29.5056
352.428	-21.07254
352.644	-8.42931
352.859	-29.50088
353.075	71.66443
353.291	29.5056
353.506	42.15228
353.722	35.82884
353.938	16.85977
354.153	56.90779
354.369	29.5056
354.584	40.04444
354.8	-8.42931
355.016	-6.32202
355.231	10.53718
355.447	2.10739
355.662	44.26014
355.878	56.90779
356.093	10.53718
356.309	48.47593
356.524	-52.67674
356.74	-21.07254
356.955	-6.32202
357.171	42.15228
357.386	21.07496
357.602	10.53718
357.817	-27.39383
358.033	21.07496
358.248	48.47593
358.464	27.39791
358.679	12.64469
358.895	52.69182
359.11	27.39791
359.325	29.5056
359.541	16.85977
359.756	4.2148
359.972	8.4297
360.187	18.96735
360.402	2.10739
360.618	29.5056
360.833	-21.07254
361.048	31.61332
361.264	44.26014
361.479	67.44814
361.694	21.07496
361.909	35.82884
362.125	-65.31684
362.34	16.85977
362.555	82.20557
362.77	27.39791
362.986	18.96735
363.201	46.36803
363.416	-35.82187
363.631	10.53718
363.847	2.10739
364.062	31.61332
364.277	4.2148
364.492	-52.67674
364.707	6.32224
364.922	-2.10736
365.138	2.10739
365.353	-31.6079
365.568	16.85977
365.783	10.53718
365.998	52.69182
366.213	52.69182
366.428	31.61332
366.643	-12.64382
366.858	16.85977
367.073	77.98905
367.288	-0
367.503	-2.10736
367.718	65.34002
367.933	18.96735
368.148	-14.75104
368.363	-29.50088
368.578	-4.2147
368.793	35.82884
369.008	-82.16888
369.223	14.75222
369.438	27.39791
369.653	18.96735
369.868	-86.38163
370.083	37.93663
370.298	-25.28676
370.513	54.79979
370.728	48.47593
370.943	50.58386
371.157	-67.42343
371.372	48.47593
371.587	23.18258
371.802	16.85977
372.017	2.10739
372.232	-29.50088
372.446	42.15228
372.661	-27.39383
372.876	-21.07254
373.091	-14.75104
373.306	-46.35635
373.52	86.42218
373.735	86.42218
373.95	-2.10736
374.165	-16.85823
374.379	-6.32202
374.594	-14.75104
374.809	23.18258
375.023	-44.2495
375.238	2.10739
375.453	27.39791
375.667	33.72107
375.882	56.90779
376.097	-23.17966
376.311	6.32224
376.526	-63.21022
376.741	10.53718
376.955	2.10739
377.17	103.28953
377.384	27.39791
377.599	-12.64382
377.813	12.64469
378.028	44.26014
378.242	-10.53658
378.457	25.29023
378.672	-73.74306
378.886	56.90779
379.101	56.90779
379.315	6.32224
379.53	2.10739
379.744	29.5056
379.958	50.58386
380.173	-73.74306
380.387	-56.89021
380.602	8.4297
380.816	-8.42931
381.031	61.12386
381.245	2.10739
381.459	80.0973
381.674	42.15228
381.888	56.90779
382.103	-14.75104
382.317	35.82884
382.531	80.0973
382.746	18.96735
382.96	94.85568
383.174	2.10739
383.388	4.2148
383.603	-2.10736
383.817	-12.64382
384.031	82.20557
384.246	-44.2495
384.46	33.72107
384.674	52.69182
384.888	29.5056
385.103	-31.6079
385.317	2.10739
385.531	-21.07254
385.745	-0
385.959	31.61332
386.174	2.10739
386.388	-6.32202
386.602	-75.84956
386.816	10.53718
387.03	37.93663
387.244	-8.42931
387.458	52.69182
387.672	40.04444
387.887	73.77262
388.101	2.10739
388.315	18.96735
388.529	40.04444
388.743	59.01582
388.957	27.39791
389.171	61.12386
389.385	-35.82187
389.599	-46.35635
389.813	77.98905
390.027	12.64469
390.241	21.07496
390.455	-2.10736
390.669	-21.07254
390.883	-21.07254
391.097	61.12386
391.311	8.4297
391.525	25.29023
391.738	-16.85823
391.952	44.26014
392.166	25.29023
392.38	-6.32202
392.594	-6.32202
392.808	2.10739
393.022	48.47593
393.236	69.55627
393.449	59.01582
393.663	4.2148
393.877	-42.14263
394.091	94.85568
394.305	94.85568
394.518	-6.32202
394.732	18.96735
394.946	-8.42931
395.16	40.04444
395.373	35.82884
395.587	25.29023
395.801	2.10739
396.015	31.61332
396.228	40.04444
396.442	-40.03573
396.656	48.47593
396.869	61.12386
397.083	99.07256
397.297	-23.17966
397.51	8.4297
397.724	-6.32202
397.938	25.29023
398.151	-58.9969
398.365	40.04444
398.578	31.61332
398.792	-37.92881
399.005	4.2148
399.219	77.98905
399.433	2.10739
399.646	-8.42931
399.86	99.07256
400.073	65.34002
400.287	44.26014
400.5	86.42218
400.714	-37.92881
400.927	16.85977
401.141	10.53718
401.354	-6.32202
401.567	-16.85823
401.781	21.07496
401.994	-54.78349
402.208	52.69182
402.421	88.53052
402.635	-6.32202
402.848	2.10739
403.061	37.93663
403.275	-14.75104
403.488	37.93663
403.701	54.79979
403.915	-16.85823
404.128	-33.71489
404.341	61.12386
404.555	10.53718
404.768	33.72107
404.981	37.93663
405.195	63.23193
405.408	2.10739
405.621	56.90779
405.834	61.12386
406.048	29.5056
406.261	61.12386
406.474	18.96735
406.687	-27.39383
406.9	61.12386
407.114	31.61332
407.327	-12.64382
407.54	-2.10736
407.753	2.10739
407.966	63.23193
408.179	-14.75104
408.392	2.10739
408.605	29.5056
408.819	94.85568
409.032	88.53052
409.245	-6.32202
409.458	37.93663
409.671	65.34002
409.884	27.39791
410.097	-23.17966
410.31	50.58386
410.523	29.5056
410.736	40.04444
410.949	44.26014
411.162	35.82884
411.375	-4.2147
411.588	35.82884
411.801	-21.07254
412.014	35.82884
412.227	40.04444
412.44	54.79979
412.653	73.77262
412.865	18.96735
413.078	-14.75104
413.291	33.72107
413.504	46.36803
413.717	-10.53658
413.93	14.75222
414.143	71.66443
414.356	-12.64382
414.568	-18.9654
414.781	54.79979
414.994	77.98905
415.207	10.53718
415.42	54.79979
415.632	44.26014
415.845	103.28953
416.058	37.93663
416.271	27.39791
416.483	-18.9654
416.696	88.53052
416.909	77.98905
417.121	-44.2495
417.334	52.69182
417.547	61.12386
417.759	115.94096
417.972	-4.2147
418.185	33.72107
418.397	14.75222
418.61	18.96735
418.823	67.44814
419.035	14.75222
419.248	56.90779
419.46	2.10739
419.673	31.61332
419.885	29.5056
420.098	99.07256
420.311	35.82884
420.523	73.77262
420.736	29.5056
420.948	-14.75104
421.161	77.98905
421.373	84.31387
421.586	88.53052
421.798	44.26014
422.01	73.77262
422.223	4.2148
422.435	4.2148
422.648	-23.17966
422.86	94.85568
423.073	73.77262
423.285	137.02842
423.497	69.55627
423.71	8.4297
423.922	52.69182
424.134	63.23193
424.347	27.39791
424.559	61.12386
424.771	77.98905
424.984	56.90779
425.196	18.96735
425.408	120.15828
425.621	137.02842
425.833	61.12386
426.045	12.64469
426.257	84.31387
426.47	35.82884
426.682	42.15228
426.894	25.29023
427.106	86.42218
427.318	105.39804
427.531	103.28953
427.743	65.34002
427.955	77.98905
428.167	132.81075
428.379	75.88082
428.591	132.81075
428.804	44.26014
429.016	59.01582
429.228	82.20557
429.44	111.72373
429.652	46.36803
429.864	61.12386
430.076	90.63889
430.288	145.464
430.5	128.59318
430.712	145.464
430.924	69.55627
431.136	94.85568
431.348	69.55627
431.56	35.82884
431.772	52.69182
431.984	99.07256
432.196	191.86571
432.408	122.26697
432.62	54.79979
432.832	50.58386
433.044	105.39804
433.256	111.72373
433.468	156.00896
433.679	149.68192
433.891	109.61514
434.103	94.85568
434.315	40.04444
434.527	88.53052
434.739	69.55627
434.95	128.59318
435.162	94.85568
435.374	99.07256
435.586	191.86571
435.798	92.74727
436.009	21.07496
436.221	149.68192
436.433	73.77262
436.645	130.70195
436.856	156.00896
437.068	96.96411
437.28	143.35507
437.491	73.77262
437.703	105.39804
437.915	126.48442
438.126	206.63197
438.338	122.26697
438.55	164.4453
438.761	153.89993
438.973	181.31899
439.184	221.39921
439.396	132.81075
439.608	130.70195
439.819	90.63889
440.031	158.11802
440.242	111.72373
440.454	153.89993
440.665	149.68192
440.877	238.27725
441.088	99.07256
441.3	204.52245
441.511	69.55627
441.723	115.94096
441.934	124.37568
442.146	158.11802
442.357	198.19399
442.569	126.48442
442.78	278.36751
442.991	189.75633
443.203	238.27725
443.414	151.79091
443.626	185.53762
443.837	151.79091
444.048	162.33619
444.26	82.20557
444.471	122.26697
444.682	170.77278
444.894	240.38709
445.105	162.33619
445.316	215.07028
445.528	210.85109
445.739	153.89993
445.95	204.52245
446.161	240.38709
446.373	183.42829
446.584	208.74152
446.795	234.05762
447.006	234.05762
447.217	242.49695
447.429	187.64696
447.64	208.74152
447.851	307.91202
448.062	280.47771
448.273	234.05762
448.484	170.77278
448.695	172.88198
448.907	217.1799
449.118	324.7962
449.329	236.16742
449.54	217.1799
449.751	248.82665
449.962	225.6186
450.173	217.1799
450.384	305.80158
450.595	305.80158
450.806	322.68561
451.017	221.39921
451.228	229.83807
451.439	174.9912
451.65	335.34939
451.861	333.23872
452.072	358.56795
452.283	250.93658
452.494	381.78858
452.705	229.83807
452.915	341.68151
453.126	282.58793
453.337	373.34447
453.548	449.35082
453.759	324.7962
453.97	358.56795
454.181	381.78858
454.391	352.2354
454.602	449.35082
454.813	377.56649
455.024	459.90888
455.235	381.78858
455.445	400.78878
455.656	356.45708
455.867	487.36163
456.078	449.35082
456.288	407.12248
456.499	426.12445
456.71	424.01305
456.921	407.12248
457.131	489.47348
457.342	487.36163
457.553	493.69724
457.763	432.45872
457.974	527.48935
458.184	443.01617
458.395	525.37723
458.606	449.35082
458.816	669.03129
459.027	622.54853
459.237	616.21043
459.448	601.42197
459.659	525.37723
459.869	578.18424
460.08	614.09776
460.29	723.97271
460.501	787.37564
460.711	698.61419
460.922	578.18424
461.132	745.10599
461.343	721.85944
461.553	704.95367
461.764	757.78646
461.974	728.19928
462.184	704.95367
462.395	821.19417
462.605	929.0057
462.816	702.8405
463.026	884.61012
463.236	916.3209
463.447	1041.06565
463.657	855.01504
463.867	1013.57757
464.078	981.86185
464.288	1142.56799
464.498	1110.84729
464.709	1191.20821
464.919	1062.211
465.129	1163.71566
465.339	1089.70075
465.55	1062.211
465.76	1072.78387
465.97	1123.53545
466.18	1227.16091
466.391	1366.74902
466.601	1142.56799
466.811	1206.01215
467.021	1328.6787
467.231	1514.80227
467.441	1288.49394
467.651	1637.4724
467.862	1438.6605
468.072	1700.91971
468.282	1559.2179
468.492	1574.02299
468.702	1656.50684
468.912	1889.12776
469.122	1747.446
469.332	1920.84457
469.542	1834.14919
469.752	1977.9316
469.962	2024.44362
470.172	1982.1601
470.382	1937.7597
470.592	2202.003
470.802	2022.32951
471.012	2218.91047
471.222	2166.07282
471.432	2392.17812
471.642	2202.003
471.852	2413.30378
472.062	2406.96619
472.272	2692.05687
472.482	2641.39002
472.691	2723.7199
472.901	2550.5941
473.111	2658.27978
473.321	2742.7163
473.531	3014.87413
473.741	2765.93266
473.95	2945.27527
474.16	2979.02222
474.37	3145.59023
474.58	3105.53851
474.79	3293.09823
474.999	3274.1375
475.209	3326.80277
475.419	3288.88485
475.628	3674.11472
475.838	3491.04829
476.048	3600.48428
476.258	3638.35426
476.467	3726.6936
476.677	3913.77539
476.886	3920.07877
477.096	4088.10137
477.306	4117.49175
477.515	3972.59989
477.725	4214.03118
477.935	4048.20791
478.144	4222.4238
478.354	4214.03118
478.563	4606.01582
478.773	4356.65914
478.982	4618.58012
479.192	4721.1584
479.401	4681.38956
479.611	4700.22844
479.82	4813.22332
480.03	4915.6983
480.239	5005.57996
480.449	4737.90074
480.658	5320.87157
480.868	5293.74818
481.077	5487.6975
481.287	5362.59214
481.496	5489.78187
481.705	5412.64444
481.915	5777.19919
482.124	5633.54668
482.333	5677.2789
482.543	5687.6898
482.752	5687.6898
482.961	5945.69139
483.171	6045.46561
483.38	5837.54135
483.589	6251.07876
483.799	6381.80391
484.008	6499.9993
484.217	6230.3202
484.426	6479.26873
484.636	6479.26873
484.845	6676.11574
485.054	6473.0491
485.263	6703.03652
485.472	6537.30848
485.682	6808.61139
485.891	6775.49626
486.1	6843.78981
486.309	7054.72284
486.518	7087.78913
486.727	7108.45265
486.936	7238.58166
487.146	7211.73685
487.355	7166.29864
487.564	7447.0188
487.773	7397.50935
487.982	7366.55959
488.191	7533.63034
488.4	7595.47252
488.609	7694.38012
488.818	7830.29877
489.027	7992.87034
489.236	7945.55262
489.445	8200.53006
489.654	8003.15537
489.863	8570.11857
490.072	8040.17728
490.281	8258.06301
490.49	8307.36468
490.698	8393.61554
490.907	8479.83232
491.116	8926.80757
491.325	8531.13582
491.534	8680.87467
491.743	8574.22162
491.952	8641.91113
492.16	8986.20256
492.369	9041.48804
492.578	9227.72776
492.787	9078.33796
492.996	9127.46247
493.204	9379.07237
493.413	9280.91327
493.622	9413.82797
493.831	9299.32101
494.039	9481.28133
494.248	9599.79351
494.457	9585.49314
494.665	9695.79051
494.874	9712.12703
495.083	9744.79713
495.291	9724.37878
495.5	9773.38027
495.709	10048.85413
495.917	9718.25297
496.126	9910.13034
496.335	9975.42044
496.543	10175.28024
496.752	10187.51218
496.96	10008.05993
497.169	10077.40668
497.377	10083.52472
497.586	10112.07392
497.794	10507.40956
498.003	10385.1942
498.211	10621.43591
498.42	10464.63947
498.628	10649.9364
498.837	10696.75344
499.045	10792.40323
499.254	10552.21032
499.462	10812.75086
499.671	10869.71804
499.879	11103.59711
500.087	10818.85493
500.296	11272.3077
500.504	11014.13031
500.713	11154.42119
500.921	11146.28979
501.129	11028.36509
501.338	10906.33501
501.546	11485.63627
501.754	11097.49777
501.962	11489.69863
502.171	11574.99938
502.379	11625.76584
502.587	11345.46125
502.795	11479.54267
503.004	11306.85406
503.212	11713.07091
503.42	11603.4293
503.628	11597.33733
503.837	11609.5212
504.045	11922.13154
504.253	12060.10416
504.461	12051.98914
504.669	11883.57369
504.877	12287.27587
505.085	12019.52779
505.294	12035.75871
505.502	12183.84313
505.71	12167.61666
505.918	12177.75826
506.126	12498.14136
506.334	12027.64332
506.542	12408.93794
506.75	12277.13623
506.958	12348.11001
507.166	12613.68183
507.374	12585.30535
507.582	12461.65059
507.79	12601.52063
507.998	12400.8279
508.206	12897.38329
508.414	12496.11415
508.622	12812.2845
508.83	12670.43121
509.037	13027.03975
509.245	12816.33704
509.453	12996.65339
509.661	12741.36137
509.869	12883.20082
510.077	12990.57598
510.285	13079.70681
510.492	13310.59449
510.7	13658.8507
510.908	13241.73931
511.116	13114.1412
511.324	13189.08195
511.531	13328.82004
511.739	13059.45064
511.947	13419.94283
512.155	13201.23392
512.362	13067.55316
512.57	13440.19125
512.778	13245.78975
512.985	13502.95892
513.193	13458.4145
513.401	13405.7687
513.608	13409.81847
513.816	13729.704
514.024	13770.18986
514.231	13563.69845
514.439	14081.89353
514.646	14126.41782
514.854	13865.32697
515.061	13545.47693
515.269	13857.23044
515.477	13915.92927
515.684	14000.93743
515.892	13875.44757
516.099	14209.39213
516.307	14100.10814
516.514	14294.38676
516.722	14219.51072
516.929	14369.26036
517.136	14079.86967
517.344	14205.34468
517.551	14257.9609
517.759	14314.6231
517.966	14547.32961
518.173	14399.61388
518.381	14743.59952
518.588	14585.77502
518.796	14512.93071
519.003	14945.93156
519.21	14385.44895
519.418	14830.60307
519.625	14555.42342
519.832	14877.13934
520.039	14780.01978
520.247	14982.35076
520.454	14840.71967
520.661	15393.07603
520.868	15073.39834
521.076	15348.56366
521.283	15138.14305
521.49	15028.88626
521.697	15077.44489
521.904	15293.93505
522.112	15073.39834
522.319	15382.95957
522.526	15312.14456
522.733	15680.38968
522.94	15585.29137
523.147	15583.26802
523.354	15459.84499
523.561	15722.88104
523.768	15443.65853
523.975	15858.45173
524.183	15672.29613
524.39	15840.24045
524.597	15767.39626
524.804	15898.92158
525.011	15929.2743
525.218	16060.80625
525.425	15607.54826
525.632	16101.27886
525.838	15834.17005
526.045	16131.63372
526.252	15789.65406
526.459	16198.41568
526.666	15983.90994
526.873	16234.84298
527.08	16174.13112
527.287	16382.58188
527.494	16307.69929
527.701	16421.03613
527.907	16327.93758
528.114	16578.90869
528.321	16459.4911
528.528	16690.23706
528.735	16793.47511
528.941	16734.77036
529.148	16554.61977
529.355	16791.45078
529.562	16740.84317
529.768	17085.00628
529.975	16538.42732
530.182	17246.99249
530.388	16769.18324
530.595	16965.55289
530.802	16906.84192
531.008	17303.69206
531.215	17155.873
531.422	17390.77097
531.628	17212.56889
531.835	17406.97232
532.042	17311.79219
532.248	17731.042
532.455	17287.49195
532.661	17544.69186
532.868	17550.76806
533.074	17743.19624
533.281	17461.65334
533.487	17650.01678
533.694	17471.7797
533.9	17733.0677
534.107	17439.37561
534.313	18043.04011
534.52	17895.13463
534.726	17812.07259
534.933	17664.19581
535.139	18158.5412
535.345	18004.54235
535.552	18105.85503
535.758	18213.25637
535.965	18472.68376
536.171	18444.30587
536.377	18732.17384
536.584	18227.44222
536.79	18097.74969
536.996	18270.00086
537.203	18282.16078
537.409	18290.26746
537.615	18533.49605
537.821	18782.86299
538.028	18545.65892
538.234	18391.60607
538.44	18709.8714
538.646	18176.77929
538.853	18900.47137
539.059	18494.9812
539.265	19058.65565
539.471	18624.72099
539.677	18647.02162
539.883	18523.36042
540.09	18857.88747
540.296	19076.90927
540.502	19310.17906
540.708	18959.28061
540.914	19606.40893
541.12	19212.80769
541.326	19448.13812
541.532	19334.52339
541.738	19701.7895
541.944	18896.41568
542.15	19886.48883
542.356	19628.73121
542.562	20026.55876
542.768	19502.9213
542.974	19397.41565
543.18	19308.15039
543.386	19608.43821
543.592	19856.04149
543.798	19910.84738
544.004	20162.58786
544.21	20089.49525
544.415	19957.53629
544.621	20576.88212
544.827	20044.83023
545.033	20414.39298
545.239	19967.68635
545.445	20578.91341
545.651	20059.0416
545.856	20414.39298
546.062	20182.89233
546.268	20213.34982
546.474	19983.92666
546.679	20154.46619
546.885	19933.17658
547.091	19874.30978
547.297	19886.48883
547.502	20444.85766
547.708	20367.68232
547.914	19983.92666
548.119	20771.90435
548.325	20351.43565
548.531	20079.34393
548.736	20645.94811
548.942	20243.80826
549.147	20231.62477
549.353	20469.23007
549.559	20922.26007
549.764	20532.19494
549.97	20678.45141
550.175	20733.30316
550.381	20706.89268
550.586	20450.9507
550.792	21056.38015
550.997	20769.87267
551.203	20843.01572
551.408	20995.41426
551.614	21298.24763
551.819	21279.95312
552.025	21601.1704
552.23	21471.04509
552.435	21835.02972
552.641	21820.79334
552.846	21450.71448
553.052	21572.70411
553.257	21489.34298
553.462	21542.20536
553.668	21503.5749
553.873	21763.8497
554.078	21806.55714
554.283	21863.50306
554.489	21621.50395
554.694	22007.91509
554.899	21607.27043
555.105	21830.96217
555.31	21948.92757
555.515	21824.86086
555.72	22022.15394
555.925	22168.62135
556.131	22311.03875
556.336	21967.2337
556.541	22492.13819
556.746	22032.32466
556.951	22280.51921
557.156	22150.31187
557.361	22278.48461
557.567	22384.28899
557.772	22396.49783
557.977	22201.1723
558.182	22300.86548
558.387	22229.65516
558.592	22756.71633
558.797	22412.77647
559.002	22380.21941
559.207	22429.05535
559.412	22199.13784
559.617	22622.3846
559.822	22868.67098
560.027	22701.7606
560.232	22801.49694
560.437	22652.9132
560.642	22834.0657
560.847	23076.32314
561.051	22937.88447
561.256	22742.4683
561.461	23023.38888
561.666	23186.27063
561.871	22681.40727
562.076	22720.07889
562.281	23229.03056
562.485	22713.97276
562.69	22921.59859
562.895	22691.58389
563.1	23023.38888
563.305	22791.31938
563.509	22895.1345
563.714	22750.61001
563.919	23345.10037
564.123	22842.20803
564.328	22933.81298
564.533	23115.00727
564.737	22870.70661
564.942	23235.13924
565.147	23636.33797
565.351	23345.10037
565.556	23306.40928
565.761	23359.35528
565.965	23548.7564
566.17	23485.6197
566.374	23302.3366
566.579	23314.55468
566.784	23670.96478
566.988	23844.11175
567.193	23976.53247
567.397	23495.80284
567.602	23856.33469
567.806	23607.82242
568.011	23638.37481
568.215	23725.96209
568.42	23552.82983
568.624	23874.6693
568.828	23538.57286
569.033	23624.11695
569.237	23772.81336
569.442	23701.51857
569.646	23595.60165
569.85	23758.55411
570.055	24043.76605
570.259	23958.19657
570.463	23952.08466
570.668	23768.73928
570.872	23520.24268
571.076	23882.81809
571.281	23970.42048
