Data from absorb_only_2.23.25_USB4F045381__49__0154.txt Node

Date: Sun Feb 23 19:21:34 EST 2025
User: ssocol
Spectrometer: USB4F04538
Trigger mode: 4
Integration Time (sec): 2.600000E-3
Scans to average: 1
Electric dark correction enabled: true
Nonlinearity correction enabled: true
Boxcar width: 0
XAxis mode: Wavelengths
Number of Pixels in Spectrum: 3648
>>>>>Begin Spectral Data<<<<<
345.52	56.55646
345.736	56.55646
345.952	56.55646
346.168	46.01671
346.384	3.86356
346.6	-23.53085
346.816	-15.10224
347.032	-25.63794
347.248	16.50851
347.464	43.90883
347.68	8.07845
347.896	-4.56592
348.112	-23.53085
348.328	-23.53085
348.544	18.61609
348.76	20.72369
348.975	8.07845
349.191	-8.78052
349.407	18.61609
349.623	-4.56592
349.839	16.50851
350.055	20.72369
350.27	-23.53085
350.486	-8.78052
350.702	14.40096
350.918	-34.06606
351.133	-8.78052
351.349	-6.67324
351.565	1.75615
351.781	1.75615
351.996	-25.63794
352.212	-21.42373
352.428	-19.31659
352.644	111.37229
352.859	-15.10224
353.075	-48.81431
353.291	-2.45859
353.506	-0.35123
353.722	58.66448
353.938	-46.70749
354.153	67.09678
354.369	58.66448
354.584	1.75615
354.8	79.74592
355.016	3.86356
355.231	-17.20943
355.447	33.36978
355.662	12.29343
355.878	29.15432
356.093	1.75615
356.309	-42.49378
356.524	41.80097
356.74	29.15432
356.955	27.04663
357.171	-0.35123
357.386	67.09678
357.602	43.90883
357.817	-55.13461
358.033	50.23254
358.248	58.66448
358.464	33.36978
358.679	-8.78052
358.895	33.36978
359.11	20.72369
359.325	-0.35123
359.541	33.36978
359.756	83.96248
359.972	-23.53085
360.187	39.69314
360.402	39.69314
360.618	8.07845
360.833	27.04663
361.048	-63.56133
361.264	-34.06606
361.479	12.29343
361.694	-25.63794
361.909	-0.35123
362.125	-17.20943
362.34	-2.45859
362.555	-0.35123
362.77	37.58533
362.986	-4.56592
363.201	22.83131
363.416	3.86356
363.631	37.58533
363.847	-59.34802
364.062	33.36978
364.277	-19.31659
364.492	41.80097
364.707	3.86356
364.922	35.47754
365.138	16.50851
365.353	8.07845
365.568	24.93896
365.783	24.93896
365.998	35.47754
366.213	-31.95906
366.428	54.44846
366.643	-8.78052
366.858	27.04663
367.073	14.40096
367.288	41.80097
367.503	39.69314
367.718	-21.42373
367.933	33.36978
368.148	50.23254
368.363	-36.17303
368.578	22.83131
368.793	31.26204
369.008	10.18593
369.223	33.36978
369.438	-29.85205
369.653	35.47754
369.868	-15.10224
370.083	-46.70749
370.298	-17.20943
370.513	-15.10224
370.728	71.31307
370.943	-40.38689
371.157	41.80097
371.372	-12.99502
371.587	12.29343
371.802	64.98867
372.017	50.23254
372.232	75.52945
372.446	-4.56592
372.661	56.55646
372.876	33.36978
373.091	14.40096
373.306	-27.74501
373.52	62.88058
373.735	-21.42373
373.95	64.98867
374.165	86.0708
374.379	1.75615
374.594	41.80097
374.809	35.47754
375.023	46.01671
375.238	-31.95906
375.453	-8.78052
375.667	3.86356
375.882	90.28749
376.097	8.07845
376.311	-31.95906
376.526	18.61609
376.741	-0.35123
376.955	88.17913
377.17	-8.78052
377.384	43.90883
377.599	-31.95906
377.813	31.26204
378.028	-8.78052
378.242	-25.63794
378.457	8.07845
378.672	16.50851
378.886	52.34049
379.101	-0.35123
379.315	67.09678
379.53	33.36978
379.744	98.72115
379.958	46.01671
380.173	75.52945
380.387	94.50427
380.602	-27.74501
380.816	67.09678
381.031	-12.99502
381.245	58.66448
381.459	3.86356
381.674	-6.67324
381.888	-44.60065
382.103	33.36978
382.317	-8.78052
382.531	54.44846
382.746	16.50851
382.96	-42.49378
383.174	37.58533
383.388	71.31307
383.603	-40.38689
383.817	33.36978
384.031	60.77252
384.246	86.0708
384.46	-55.13461
384.674	-21.42373
384.888	-15.10224
385.103	41.80097
385.317	-29.85205
385.531	18.61609
385.745	-4.56592
385.959	5.97099
386.174	-42.49378
386.388	-8.78052
386.602	33.36978
386.816	50.23254
387.03	-15.10224
387.244	35.47754
387.458	46.01671
387.672	41.80097
387.887	35.47754
388.101	14.40096
388.315	50.23254
388.529	50.23254
388.743	71.31307
388.957	-12.99502
389.171	33.36978
389.385	12.29343
389.599	39.69314
389.813	33.36978
390.027	3.86356
390.241	24.93896
390.455	113.4809
390.669	22.83131
390.883	10.18593
391.097	67.09678
391.311	41.80097
391.525	1.75615
391.738	-34.06606
391.952	29.15432
392.166	-6.67324
392.38	43.90883
392.594	-29.85205
392.808	1.75615
393.022	-0.35123
393.236	77.63768
393.449	10.18593
393.663	24.93896
393.877	67.09678
394.091	-0.35123
394.305	8.07845
394.518	24.93896
394.732	-67.77453
394.946	-95.15786
395.16	-6.67324
395.373	29.15432
395.587	-17.20943
395.801	107.15516
396.015	96.6127
396.228	-4.56592
396.442	41.80097
396.656	-17.20943
396.869	3.86356
397.083	33.36978
397.297	111.37229
397.51	31.26204
397.724	18.61609
397.938	8.07845
398.151	58.66448
398.365	-12.99502
398.578	79.74592
398.792	67.09678
399.005	60.77252
399.219	22.83131
399.433	111.37229
399.646	-23.53085
399.86	43.90883
400.073	56.55646
400.287	-27.74501
400.5	54.44846
400.714	69.20492
400.927	-50.9211
401.141	5.97099
401.354	-40.38689
401.567	52.34049
401.781	-0.35123
401.994	37.58533
402.208	41.80097
402.421	50.23254
402.635	-25.63794
402.848	14.40096
403.061	41.80097
403.275	69.20492
403.488	27.04663
403.701	27.04663
403.915	-6.67324
404.128	60.77252
404.341	100.82962
404.555	-25.63794
404.768	27.04663
404.981	39.69314
405.195	41.80097
405.408	52.34049
405.621	22.83131
405.834	29.15432
406.048	-8.78052
406.261	-12.99502
406.474	54.44846
406.687	16.50851
406.9	52.34049
407.114	-46.70749
407.327	-0.35123
407.54	69.20492
407.753	41.80097
407.966	29.15432
408.179	52.34049
408.392	10.18593
408.605	27.04663
408.819	-23.53085
409.032	8.07845
409.245	48.12461
409.458	64.98867
409.671	3.86356
409.884	16.50851
410.097	16.50851
410.31	43.90883
410.523	-17.20943
410.736	64.98867
410.949	29.15432
411.162	39.69314
411.375	1.75615
411.588	102.93811
411.801	33.36978
412.014	-2.45859
412.227	73.42125
412.44	52.34049
412.653	62.88058
412.865	24.93896
413.078	27.04663
413.291	88.17913
413.504	92.39587
413.717	12.29343
413.93	20.72369
414.143	-42.49378
414.356	33.36978
414.568	33.36978
414.781	18.61609
414.994	60.77252
415.207	35.47754
415.42	-23.53085
415.632	56.55646
415.845	90.28749
416.058	20.72369
416.271	-34.06606
416.483	24.93896
416.696	27.04663
416.909	-67.77453
417.121	35.47754
417.334	39.69314
417.547	71.31307
417.759	50.23254
417.972	-31.95906
418.185	24.93896
418.397	8.07845
418.61	-23.53085
418.823	64.98867
419.035	54.44846
419.248	41.80097
419.46	41.80097
419.673	92.39587
419.885	16.50851
420.098	50.23254
420.311	126.13296
420.523	43.90883
420.736	88.17913
420.948	24.93896
421.161	81.85419
421.373	12.29343
421.586	58.66448
421.798	75.52945
422.01	81.85419
422.223	1.75615
422.435	75.52945
422.648	-61.45468
422.86	58.66448
423.073	75.52945
423.285	18.61609
423.497	58.66448
423.71	58.66448
423.922	83.96248
424.134	-17.20943
424.347	67.09678
424.559	10.18593
424.771	-50.9211
424.984	20.72369
425.196	75.52945
425.408	37.58533
425.621	18.61609
425.833	52.34049
426.045	75.52945
426.257	10.18593
426.47	69.20492
426.682	27.04663
426.894	52.34049
427.106	58.66448
427.318	-36.17303
427.531	5.97099
427.743	79.74592
427.955	77.63768
428.167	27.04663
428.379	-12.99502
428.591	67.09678
428.804	58.66448
429.016	-15.10224
429.228	69.20492
429.44	58.66448
429.652	3.86356
429.864	-21.42373
430.076	111.37229
430.288	33.36978
430.5	35.47754
430.712	67.09678
430.924	-17.20943
431.136	24.93896
431.348	-8.78052
431.56	-0.35123
431.772	67.09678
431.984	58.66448
432.196	50.23254
432.408	102.93811
432.62	64.98867
432.832	41.80097
433.044	-8.78052
433.256	-2.45859
433.468	35.47754
433.679	41.80097
433.891	16.50851
434.103	-12.99502
434.315	41.80097
434.527	35.47754
434.739	75.52945
434.95	88.17913
435.162	16.50851
435.374	27.04663
435.586	-19.31659
435.798	94.50427
436.009	46.01671
436.221	124.02423
436.433	60.77252
436.645	-38.27997
436.856	67.09678
437.068	71.31307
437.28	16.50851
437.491	100.82962
437.703	5.97099
437.915	18.61609
438.126	54.44846
438.338	124.02423
438.55	77.63768
438.761	92.39587
438.973	117.69816
439.184	52.34049
439.396	27.04663
439.608	73.42125
439.819	92.39587
440.031	14.40096
440.242	62.88058
440.454	105.04662
440.665	67.09678
440.877	10.18593
441.088	83.96248
441.3	18.61609
441.511	134.5681
441.723	-10.88778
441.934	33.36978
442.146	94.50427
442.357	41.80097
442.569	29.15432
442.78	67.09678
442.991	90.28749
443.203	50.23254
443.414	16.50851
443.626	107.15516
443.837	62.88058
444.048	3.86356
444.26	77.63768
444.471	37.58533
444.682	96.6127
444.894	100.82962
445.105	24.93896
445.316	109.26371
445.528	102.93811
445.739	22.83131
445.95	96.6127
446.161	75.52945
446.373	41.80097
446.584	102.93811
446.795	60.77252
447.006	138.7858
447.217	69.20492
447.429	62.88058
447.64	52.34049
447.851	69.20492
448.062	69.20492
448.273	46.01671
448.484	83.96248
448.695	86.0708
448.907	117.69816
449.118	77.63768
449.329	5.97099
449.54	77.63768
449.751	5.97099
449.962	39.69314
450.173	105.04662
450.384	71.31307
450.595	33.36978
450.806	35.47754
451.017	109.26371
451.228	143.00359
451.439	113.4809
451.65	27.04663
451.861	56.55646
452.072	71.31307
452.283	136.67694
452.494	64.98867
452.705	33.36978
452.915	24.93896
453.126	79.74592
453.337	109.26371
453.548	83.96248
453.759	130.35049
453.97	90.28749
454.181	22.83131
454.391	134.5681
454.602	180.96744
454.813	64.98867
455.024	83.96248
455.235	111.37229
455.445	140.89469
455.656	77.63768
455.867	102.93811
456.078	100.82962
456.288	105.04662
456.499	52.34049
456.71	77.63768
456.921	153.54842
457.131	218.93794
457.342	60.77252
457.553	75.52945
457.763	67.09678
457.974	145.11251
458.184	62.88058
458.395	161.98467
458.606	172.53045
458.816	166.20292
459.027	143.00359
459.237	134.5681
459.448	128.24171
459.659	98.72115
459.869	227.37671
460.08	157.7665
460.29	178.85816
460.501	168.31207
460.711	149.33043
460.922	161.98467
461.132	113.4809
461.343	231.59621
461.553	166.20292
461.764	172.53045
461.974	202.06136
462.184	105.04662
462.395	136.67694
462.605	244.25518
462.816	193.62355
463.026	193.62355
463.236	183.07674
463.447	187.2954
463.657	126.13296
463.867	278.01581
464.078	252.69488
464.288	204.17086
464.498	240.03545
464.709	229.48645
464.919	286.45672
465.129	240.03545
465.339	320.22329
465.55	273.79547
465.76	237.92561
465.97	244.25518
466.18	229.48645
466.391	240.03545
466.601	288.56699
466.811	339.219
467.021	280.12601
467.231	404.65936
467.441	324.44443
467.651	429.99538
467.862	368.7707
468.072	366.65975
468.282	322.33385
468.492	465.89196
468.702	394.10337
468.912	544.03473
469.122	423.66115
469.332	457.4453
469.542	468.00366
469.752	468.00366
469.962	364.54882
470.172	432.10681
470.382	508.12883
470.592	552.48376
470.802	554.59606
471.012	573.6073
471.222	554.59606
471.432	660.22729
471.642	582.05709
471.852	681.35723
472.062	755.32078
472.272	776.4556
472.482	611.63298
472.691	683.47028
472.901	649.66276
473.111	700.37515
473.321	827.18311
473.531	806.04598
473.741	888.48578
473.95	1053.40037
474.16	797.5914
474.37	928.65334
474.58	865.2322
474.79	958.25223
474.999	1004.76751
475.209	973.05219
475.419	1021.68293
475.628	1203.54481
475.838	1076.66063
476.048	1167.59277
476.258	1152.78931
476.467	1209.8894
476.677	1300.83129
476.886	1372.74161
477.096	1264.87694
477.306	1370.62658
477.515	1252.18734
477.725	1434.07789
477.935	1300.83129
478.144	1605.39541
478.354	1444.65315
478.563	1770.35605
478.773	1512.33472
478.982	1766.12654
479.192	1749.20833
479.401	1850.7136
479.611	1785.15922
479.82	1717.48608
480.03	1757.66746
480.239	1882.43183
480.449	1766.12654
480.658	2155.15239
480.868	2076.9419
481.077	2013.52063
481.287	1990.26464
481.496	2281.95626
481.705	2121.33293
481.915	2438.30112
482.124	2281.95626
482.333	2349.57157
482.543	2262.93771
482.752	2442.52587
482.961	2307.31315
483.171	2653.70555
483.38	2417.1767
483.589	2630.48163
483.799	2577.69444
484.008	2923.82993
484.217	2628.37029
484.426	2942.81441
484.636	2833.11015
484.845	2892.18651
485.054	2780.35413
485.263	2934.37701
485.472	2936.48638
485.682	3178.96222
485.891	2966.01603
486.1	3193.71484
486.309	3124.15976
486.518	3404.37658
486.727	3345.4086
486.936	3429.64434
487.146	3311.70649
487.355	3246.39619
487.564	3208.46666
487.773	3372.7883
487.982	3332.77082
488.191	3713.72526
488.4	3640.10735
488.609	3741.06307
488.818	3600.13361
489.027	3833.5666
489.236	3766.29506
489.445	3797.8311
489.654	3753.67942
489.863	4047.85794
490.072	3814.64852
490.281	4003.75642
490.49	3989.0539
490.698	4136.03357
490.907	4035.25843
491.116	4152.82475
491.325	4094.04975
491.534	4272.42275
491.743	4249.34782
491.952	4295.49509
492.16	4379.37252
492.369	4555.40146
492.578	4467.40638
492.787	4639.16988
492.996	4404.52899
493.204	4553.30679
493.413	4666.38692
493.622	4678.94734
493.831	4517.69406
494.039	4798.23089
494.248	4614.04311
494.457	4998.96222
494.665	4745.92259
494.874	5099.24836
495.083	4952.97996
495.291	4890.25895
495.5	4917.44059
495.709	4990.60264
495.917	5078.35981
496.126	5278.79384
496.335	5293.40041
496.543	5299.66002
496.752	5166.07611
496.96	5151.45957
497.169	5195.30576
497.377	5424.80788
497.586	5241.22883
497.794	5549.87115
498.003	5295.48697
498.211	5706.08095
498.42	5193.21807
498.628	5458.16637
498.837	5451.91211
499.045	5579.04038
499.254	5280.88057
499.462	5828.87272
499.671	5799.74313
499.879	5891.27771
500.087	5758.12139
500.296	5795.58138
500.504	5760.20271
500.713	5816.38918
500.921	5756.04006
501.129	6074.20991
501.338	5620.7027
501.546	6173.91428
501.754	6011.86716
501.962	6076.28764
502.171	6136.53148
502.379	6196.75557
502.587	6256.95993
502.795	6090.83107
503.004	6028.49396
503.212	6425.01274
503.42	6084.59831
503.628	6288.09239
503.837	6412.56963
504.045	6433.30768
504.253	6327.51927
504.461	6375.23528
504.669	6286.01705
504.877	6422.93895
505.085	6352.41612
505.294	6642.63192
505.502	6366.93773
505.71	6679.91249
505.918	6462.33704
506.126	6679.91249
506.334	6626.06038
506.542	6872.41054
506.75	6572.19269
506.958	6779.291
507.166	6597.05664
507.374	6845.51408
507.582	6708.90335
507.79	6936.53279
507.998	6806.19694
508.206	6907.57705
508.414	6777.22115
508.622	6969.61964
508.83	7035.77603
509.037	7145.29706
509.245	7064.71222
509.453	7066.77892
509.661	6924.12373
509.869	7145.29706
510.077	6862.0662
510.285	7399.22864
510.492	7052.31153
510.7	7267.1432
510.908	7056.44518
511.116	7366.21568
511.324	7068.8456
511.531	7281.59442
511.739	7370.3426
511.947	7407.48101
512.155	7201.06672
512.362	7623.98216
512.57	7110.17451
512.778	7355.89798
512.985	7648.71012
513.193	7572.45574
513.401	7308.42954
513.608	7452.86284
513.816	7566.27167
514.024	7502.35834
514.231	7582.76209
514.439	7531.22498
514.646	7450.80025
514.854	7729.05492
515.061	7333.19713
515.269	7706.39682
515.477	7588.94564
515.684	7936.97941
515.892	7611.61703
516.099	7918.46006
516.307	7794.95496
516.514	8111.8029
516.722	7764.06699
516.929	8117.97047
517.136	7780.54116
517.344	8025.43786
517.551	7864.95034
517.759	7926.69108
517.966	8021.32435
518.173	8019.26756
518.381	7998.69858
518.588	8366.58027
518.796	8173.4705
519.003	8282.37289
519.21	8327.56141
519.418	8319.34602
519.625	8152.91663
519.832	8191.96728
520.039	8333.72275
520.247	8346.0449
520.454	8245.39339
520.661	8862.95836
520.868	8569.77664
521.076	8584.13701
521.283	8456.9129
521.49	8526.68999
521.697	8569.77664
521.904	8674.38121
522.112	8502.06529
522.319	8815.82851
522.526	8582.08559
522.733	8793.28477
522.94	8674.38121
523.147	8577.98268
523.354	8653.87433
523.561	8895.73873
523.768	8797.3838
523.975	8948.9971
524.183	8826.07494
524.39	8963.33384
524.597	9022.71971
524.804	9075.94971
525.011	8936.70777
525.218	8908.03019
525.425	9094.37275
525.632	9225.34096
525.838	9120.98134
526.045	9202.83576
526.252	9127.12137
526.459	9378.73161
526.666	9180.32851
526.873	9452.32623
527.08	9253.981
527.287	9393.04332
527.494	9399.17667
527.701	9636.22194
527.907	9163.95831
528.114	9683.19711
528.321	9401.22109
528.528	9658.68935
528.735	9654.60451
528.941	9626.00886
529.148	9143.49403
529.355	9703.61855
529.562	9636.22194
529.768	9689.3237
529.975	9650.5196
530.182	9909.79025
530.388	9460.50212
530.595	9705.66061
530.802	9397.13224
531.008	9866.93541
531.215	9864.89454
531.422	10095.42056
531.628	9864.89454
531.835	9717.91265
532.042	9907.74969
532.248	9948.55809
532.455	9764.8737
532.661	10066.86975
532.868	10036.27653
533.074	10323.72928
533.281	10052.59331
533.487	10401.15274
533.694	9975.08043
533.9	10270.74427
534.107	10050.55376
534.313	10362.44339
534.52	10315.57833
534.726	10289.08626
534.933	9993.44062
535.139	10297.23791
535.345	10195.32678
535.552	10366.51828
535.758	10427.63536
535.965	10382.81732
536.171	10305.38934
536.377	10317.61608
536.584	10395.04105
536.79	10486.70411
536.996	10657.73969
537.203	10505.03359
537.409	10562.05209
537.615	10775.78512
537.821	10590.55765
538.028	10859.20692
538.234	10694.37882
538.44	10667.91762
538.646	10564.08828
538.853	11192.70428
539.059	10735.08436
539.265	10844.96556
539.471	11001.58971
539.677	11007.6906
539.883	11084.95993
540.09	10981.25269
540.296	11166.27919
540.502	11294.32288
540.708	10832.75823
540.914	11312.61151
541.12	11247.58153
541.326	11452.79749
541.532	11225.22505
541.738	11204.89988
541.944	11251.64621
542.15	11479.20413
542.356	11458.89147
542.562	11215.06259
542.768	11404.04247
542.974	11412.16869
543.18	11629.48849
543.386	11929.9104
543.592	11645.73242
543.798	11619.33574
544.004	11586.8454
544.21	11489.3601
544.415	11475.14168
544.621	11532.01258
544.827	11767.54367
545.033	11779.72306
545.239	11550.29094
545.445	11970.4938
545.651	12078.0244
545.856	12000.92924
546.062	11968.46471
546.268	12165.25026
546.474	11895.41195
546.679	11619.33574
546.885	11753.33399
547.091	12029.33403
547.297	11749.274
547.502	11897.44133
547.708	11787.84247
547.914	12049.62223
548.119	12055.70854
548.325	12053.67978
548.531	11940.05655
548.736	12163.22191
548.942	11895.41195
549.147	11836.55611
549.353	12124.68183
549.559	12191.61814
549.764	12049.62223
549.97	12288.96579
550.175	12293.02158
550.381	12546.45463
550.586	12211.90028
550.792	12803.84163
550.997	12311.27231
551.203	12134.82422
551.408	12619.42454
551.614	12524.15665
551.819	12293.02158
552.025	12591.04831
552.23	12376.1592
552.435	12576.85974
552.641	12732.91768
552.846	12783.57835
553.052	12483.61288
553.257	12732.91768
553.462	12791.68373
553.668	12749.12948
553.873	12530.23799
554.078	12556.58982
554.283	12836.26172
554.489	13071.26679
554.694	12878.81095
554.899	12951.74702
555.105	12921.35782
555.31	12935.5396
555.515	12909.20181
555.72	12862.602
555.925	12619.42454
556.131	13298.10641
556.336	12876.78485
556.541	13409.48099
556.746	13061.13867
556.951	13269.75452
557.156	12880.83705
557.361	13190.76974
557.567	13371.00753
557.772	13192.79507
557.977	12955.79883
558.182	13283.93057
558.387	12860.57586
558.592	13160.38917
558.797	12994.28996
559.002	13318.35726
559.207	13292.03108
559.412	13219.12402
559.617	13265.70418
559.822	13356.83273
560.027	13237.35131
560.232	13512.74495
560.437	13213.04817
560.642	13298.10641
560.847	13371.00753
561.051	13729.36661
561.256	13567.4102
561.461	13737.46388
561.666	13646.36661
561.871	13658.51329
562.076	13526.91768
562.281	13611.95036
562.485	13411.50587
562.69	13846.77236
562.895	13638.26875
563.1	13703.05012
563.305	13508.69557
563.509	13765.80395
563.714	13273.80484
563.919	13781.99801
564.123	13692.92825
564.328	13844.74821
564.533	13676.73309
564.737	13607.90132
564.942	13585.63138
565.147	13998.57615
565.351	13889.27894
565.556	13666.61101
565.761	13798.19188
565.965	13978.33649
566.17	13607.90132
566.374	13919.64004
566.579	13810.33716
566.784	14168.58
566.988	13958.09658
567.193	14196.91248
567.397	13954.04857
567.602	13941.90447
567.806	14077.5085
568.011	14221.19714
568.215	14180.72254
568.42	13992.50428
568.624	13820.45814
568.828	14016.79163
569.033	14075.48464
569.237	14122.0329
569.442	14312.2622
569.646	14186.79378
569.85	14439.74744
570.055	14247.50521
570.259	14124.05671
570.463	14164.53247
570.668	14267.74198
570.872	14427.60626
571.076	14281.9076
571.281	14407.37083
571.485	14237.38676
571.689	14625.9062
571.893	14522.71082
572.098	14694.70153
572.302	14316.30946
572.506	14561.15652
572.71	14255.59994
572.914	14619.83596
573.119	14399.27662
573.323	14476.17067
573.527	14403.32373
573.731	14994.15326
