Data from absorb_only_2.23.25_USB4F045381__66__0171.txt Node

Date: Sun Feb 23 19:25:31 EST 2025
User: ssocol
Spectrometer: USB4F04538
Trigger mode: 4
Integration Time (sec): 2.600000E-3
Scans to average: 1
Electric dark correction enabled: true
Nonlinearity correction enabled: true
Boxcar width: 0
XAxis mode: Wavelengths
Number of Pixels in Spectrum: 3648
>>>>>Begin Spectral Data<<<<<
345.52	-8.78052
345.736	-8.78052
345.952	-8.78052
346.168	-10.88778
346.384	1.75615
346.6	43.90883
346.816	31.26204
347.032	-23.53085
347.248	-40.38689
347.464	48.12461
347.68	37.58533
347.896	-78.3071
348.112	-19.31659
348.328	-6.67324
348.544	22.83131
348.76	-15.10224
348.975	-0.35123
349.191	10.18593
349.407	-53.02787
349.623	35.47754
349.839	37.58533
350.055	-19.31659
350.27	1.75615
350.486	-44.60065
350.702	-34.06606
350.918	20.72369
351.133	39.69314
351.349	20.72369
351.565	14.40096
351.781	-63.56133
351.996	35.47754
352.212	-0.35123
352.428	8.07845
352.644	8.07845
352.859	-31.95906
353.075	-15.10224
353.291	18.61609
353.506	-6.67324
353.722	-2.45859
353.938	-88.83902
354.153	39.69314
354.369	69.20492
354.584	1.75615
354.8	8.07845
355.016	-17.20943
355.231	16.50851
355.447	5.97099
355.662	-10.88778
355.878	-2.45859
356.093	18.61609
356.309	37.58533
356.524	-25.63794
356.74	-48.81431
356.955	-0.35123
357.171	-15.10224
357.386	-10.88778
357.602	-21.42373
357.817	-40.38689
358.033	-38.27997
358.248	22.83131
358.464	107.15516
358.679	14.40096
358.895	-27.74501
359.11	5.97099
359.325	-31.95906
359.541	-34.06606
359.756	-15.10224
359.972	16.50851
360.187	37.58533
360.402	33.36978
360.618	37.58533
360.833	-25.63794
361.048	-6.67324
361.264	-8.78052
361.479	24.93896
361.694	-6.67324
361.909	48.12461
362.125	22.83131
362.34	-44.60065
362.555	-55.13461
362.77	24.93896
362.986	54.44846
363.201	-4.56592
363.416	56.55646
363.631	14.40096
363.847	92.39587
364.062	33.36978
364.277	-0.35123
364.492	-19.31659
364.707	16.50851
364.922	41.80097
365.138	-2.45859
365.353	64.98867
365.568	-19.31659
365.783	22.83131
365.998	39.69314
366.213	-12.99502
366.428	-34.06606
366.643	14.40096
366.858	-44.60065
367.073	69.20492
367.288	111.37229
367.503	20.72369
367.718	-34.06606
367.933	14.40096
368.148	-99.37029
368.363	81.85419
368.578	-19.31659
368.793	18.61609
369.008	31.26204
369.223	-12.99502
369.438	-17.20943
369.653	-40.38689
369.868	-4.56592
370.083	-10.88778
370.298	-67.77453
370.513	27.04663
370.728	14.40096
370.943	1.75615
371.157	-36.17303
371.372	31.26204
371.587	-6.67324
371.802	3.86356
372.017	-61.45468
372.232	-2.45859
372.446	-0.35123
372.661	33.36978
372.876	39.69314
373.091	50.23254
373.306	-4.56592
373.52	29.15432
373.735	90.28749
373.95	-31.95906
374.165	20.72369
374.379	-23.53085
374.594	-19.31659
374.809	-19.31659
375.023	50.23254
375.238	10.18593
375.453	22.83131
375.667	52.34049
375.882	10.18593
376.097	5.97099
376.311	52.34049
376.526	54.44846
376.741	-8.78052
376.955	5.97099
377.17	-8.78052
377.384	24.93896
377.599	5.97099
377.813	-8.78052
378.028	35.47754
378.242	27.04663
378.457	22.83131
378.672	35.47754
378.886	48.12461
379.101	10.18593
379.315	-10.88778
379.53	1.75615
379.744	14.40096
379.958	73.42125
380.173	-0.35123
380.387	-36.17303
380.602	-2.45859
380.816	-50.9211
381.031	-27.74501
381.245	60.77252
381.459	22.83131
381.674	39.69314
381.888	12.29343
382.103	-6.67324
382.317	-10.88778
382.531	69.20492
382.746	22.83131
382.96	18.61609
383.174	31.26204
383.388	-10.88778
383.603	-2.45859
383.817	27.04663
384.031	-84.62633
384.246	-46.70749
384.46	14.40096
384.674	-17.20943
384.888	-34.06606
385.103	50.23254
385.317	-44.60065
385.531	62.88058
385.745	-2.45859
385.959	5.97099
386.174	56.55646
386.388	-71.98763
386.602	24.93896
386.816	92.39587
387.03	27.04663
387.244	22.83131
387.458	-50.9211
387.672	56.55646
387.887	-4.56592
388.101	14.40096
388.315	-2.45859
388.529	29.15432
388.743	14.40096
388.957	-36.17303
389.171	8.07845
389.385	-19.31659
389.599	-0.35123
389.813	16.50851
390.027	-0.35123
390.241	-4.56592
390.455	37.58533
390.669	-25.63794
390.883	24.93896
391.097	14.40096
391.311	-40.38689
391.525	-15.10224
391.738	-4.56592
391.952	24.93896
392.166	-8.78052
392.38	-2.45859
392.594	-69.8811
392.808	83.96248
393.022	22.83131
393.236	31.26204
393.449	5.97099
393.663	29.15432
393.877	-69.8811
394.091	33.36978
394.305	22.83131
394.518	-84.62633
394.732	-21.42373
394.946	41.80097
395.16	-36.17303
395.373	31.26204
395.587	-69.8811
395.801	41.80097
396.015	-57.24133
396.228	14.40096
396.442	10.18593
396.656	-34.06606
396.869	-15.10224
397.083	1.75615
397.297	-10.88778
397.51	-44.60065
397.724	1.75615
397.938	29.15432
398.151	10.18593
398.365	41.80097
398.578	8.07845
398.792	-4.56592
399.005	39.69314
399.219	24.93896
399.433	16.50851
399.646	-36.17303
399.86	39.69314
400.073	69.20492
400.287	8.07845
400.5	54.44846
400.714	-2.45859
400.927	16.50851
401.141	-6.67324
401.354	75.52945
401.567	-27.74501
401.781	41.80097
401.994	18.61609
402.208	73.42125
402.421	5.97099
402.635	52.34049
402.848	10.18593
403.061	8.07845
403.275	27.04663
403.488	50.23254
403.701	22.83131
403.915	56.55646
404.128	1.75615
404.341	20.72369
404.555	27.04663
404.768	-29.85205
404.981	-17.20943
405.195	16.50851
405.408	5.97099
405.621	22.83131
405.834	-67.77453
406.048	60.77252
406.261	12.29343
406.474	58.66448
406.687	22.83131
406.9	-36.17303
407.114	56.55646
407.327	27.04663
407.54	12.29343
407.753	43.90883
407.966	24.93896
408.179	22.83131
408.392	-29.85205
408.605	71.31307
408.819	107.15516
409.032	22.83131
409.245	98.72115
409.458	54.44846
409.671	18.61609
409.884	14.40096
410.097	-17.20943
410.31	14.40096
410.523	-4.56592
410.736	41.80097
410.949	41.80097
411.162	27.04663
411.375	33.36978
411.588	24.93896
411.801	-10.88778
412.014	41.80097
412.227	-6.67324
412.44	43.90883
412.653	73.42125
412.865	-40.38689
413.078	-61.45468
413.291	46.01671
413.504	-12.99502
413.717	18.61609
413.93	-10.88778
414.143	96.6127
414.356	-27.74501
414.568	3.86356
414.781	94.50427
414.994	-2.45859
415.207	10.18593
415.42	12.29343
415.632	-8.78052
415.845	24.93896
416.058	43.90883
416.271	3.86356
416.483	3.86356
416.696	39.69314
416.909	5.97099
417.121	81.85419
417.334	24.93896
417.547	62.88058
417.759	-0.35123
417.972	-44.60065
418.185	-31.95906
418.397	46.01671
418.61	-31.95906
418.823	33.36978
419.035	64.98867
419.248	56.55646
419.46	10.18593
419.673	52.34049
419.885	8.07845
420.098	35.47754
420.311	81.85419
420.523	107.15516
420.736	5.97099
420.948	24.93896
421.161	-10.88778
421.373	10.18593
421.586	35.47754
421.798	1.75615
422.01	-27.74501
422.223	22.83131
422.435	-0.35123
422.648	60.77252
422.86	14.40096
423.073	92.39587
423.285	-10.88778
423.497	5.97099
423.71	-36.17303
423.922	105.04662
424.134	18.61609
424.347	18.61609
424.559	3.86356
424.771	58.66448
424.984	24.93896
425.196	48.12461
425.408	43.90883
425.621	73.42125
425.833	-19.31659
426.045	18.61609
426.257	18.61609
426.47	102.93811
426.682	-23.53085
426.894	81.85419
427.106	14.40096
427.318	35.47754
427.531	67.09678
427.743	-27.74501
427.955	73.42125
428.167	31.26204
428.379	39.69314
428.591	-61.45468
428.804	31.26204
429.016	12.29343
429.228	48.12461
429.44	22.83131
429.652	73.42125
429.864	105.04662
430.076	69.20492
430.288	33.36978
430.5	73.42125
430.712	58.66448
430.924	86.0708
431.136	5.97099
431.348	-0.35123
431.56	117.69816
431.772	-4.56592
431.984	67.09678
432.196	81.85419
432.408	39.69314
432.62	98.72115
432.832	56.55646
433.044	35.47754
433.256	22.83131
433.468	67.09678
433.679	20.72369
433.891	18.61609
434.103	128.24171
434.315	39.69314
434.527	107.15516
434.739	48.12461
434.95	-6.67324
435.162	92.39587
435.374	39.69314
435.586	113.4809
435.798	64.98867
436.009	64.98867
436.221	27.04663
436.433	10.18593
436.645	100.82962
436.856	73.42125
437.068	-44.60065
437.28	60.77252
437.491	67.09678
437.703	107.15516
437.915	14.40096
438.126	50.23254
438.338	90.28749
438.55	48.12461
438.761	35.47754
438.973	-10.88778
439.184	-6.67324
439.396	75.52945
439.608	67.09678
439.819	52.34049
440.031	124.02423
440.242	86.0708
440.454	43.90883
440.665	10.18593
440.877	29.15432
441.088	46.01671
441.3	67.09678
441.511	83.96248
441.723	56.55646
441.934	-19.31659
442.146	39.69314
442.357	113.4809
442.569	33.36978
442.78	79.74592
442.991	143.00359
443.203	77.63768
443.414	29.15432
443.626	33.36978
443.837	119.80683
444.048	83.96248
444.26	67.09678
444.471	48.12461
444.682	50.23254
444.894	37.58533
445.105	24.93896
445.316	-10.88778
445.528	90.28749
445.739	43.90883
445.95	58.66448
446.161	143.00359
446.373	41.80097
446.584	132.45929
446.795	111.37229
447.006	64.98867
447.217	39.69314
447.429	37.58533
447.64	111.37229
447.851	75.52945
448.062	119.80683
448.273	140.89469
448.484	164.09378
448.695	41.80097
448.907	18.61609
449.118	90.28749
449.329	48.12461
449.54	124.02423
449.751	35.47754
449.962	98.72115
450.173	69.20492
450.384	48.12461
450.595	107.15516
450.806	130.35049
451.017	29.15432
451.228	98.72115
451.439	43.90883
451.65	69.20492
451.861	111.37229
452.072	119.80683
452.283	90.28749
452.494	126.13296
452.705	117.69816
452.915	90.28749
453.126	58.66448
453.337	102.93811
453.548	81.85419
453.759	52.34049
453.97	86.0708
454.181	161.98467
454.391	86.0708
454.602	138.7858
454.813	126.13296
455.024	98.72115
455.235	75.52945
455.445	117.69816
455.656	117.69816
455.867	128.24171
456.078	140.89469
456.288	159.87558
456.499	109.26371
456.71	69.20492
456.921	119.80683
457.131	109.26371
457.342	166.20292
457.553	145.11251
457.763	105.04662
457.974	115.58952
458.184	119.80683
458.395	128.24171
458.606	136.67694
458.816	178.85816
459.027	145.11251
459.237	126.13296
459.448	128.24171
459.659	132.45929
459.869	183.07674
460.08	166.20292
460.29	178.85816
460.501	259.02486
460.711	166.20292
460.922	147.22146
461.132	126.13296
461.343	244.25518
461.553	210.49949
461.764	199.95188
461.974	225.26699
462.184	199.95188
462.395	185.18606
462.605	216.8283
462.816	174.63967
463.026	180.96744
463.236	250.58493
463.447	210.49949
463.657	195.73297
463.867	248.47499
464.078	212.60907
464.288	195.73297
464.498	307.56028
464.709	248.47499
464.919	183.07674
465.129	235.81579
465.339	199.95188
465.55	337.1083
465.76	250.58493
465.97	229.48645
466.18	225.26699
466.391	324.44443
466.601	286.45672
466.811	322.33385
467.021	339.219
467.231	303.33942
467.441	284.34646
467.651	334.99761
467.862	330.77629
468.072	398.32572
468.282	309.67074
468.492	362.43791
468.702	457.4453
468.912	465.89196
469.122	400.43691
469.332	512.35284
469.542	391.99222
469.752	516.57691
469.962	514.46487
470.172	472.22711
470.382	556.70836
470.592	546.14697
470.802	582.05709
471.012	579.94462
471.222	565.15772
471.432	626.42187
471.642	658.11436
471.852	717.28072
472.062	681.35723
472.272	721.50723
472.482	675.01812
472.691	848.32114
472.901	685.58335
473.111	846.2073
473.321	765.88806
473.531	820.84188
473.741	951.90949
473.95	987.85249
474.16	848.32114
474.37	1070.31686
474.58	964.59503
474.79	1019.56848
474.999	943.45261
475.209	1095.69222
475.419	1125.29771
475.628	1186.62608
475.838	1116.8389
476.048	1184.51125
476.258	1239.49783
476.467	1425.61768
476.677	1273.33673
476.886	1440.42304
477.096	1478.49398
477.306	1412.92739
477.515	1497.52941
477.725	1531.37006
477.935	1505.98959
478.144	1472.14882
478.354	1472.14882
478.563	1783.04449
478.773	1783.04449
478.982	1764.01177
479.192	1848.59901
479.401	1924.72099
479.611	1924.72099
479.82	1759.78224
480.03	1840.14061
480.239	1945.86473
480.449	1922.60658
480.658	2051.57414
480.868	2250.25826
481.077	2252.37152
481.287	2157.26603
481.496	2300.97406
481.705	2195.3103
481.915	2524.89979
482.124	2461.53674
482.333	2554.4657
482.543	2372.81202
482.752	2617.8134
482.961	2571.35947
483.171	2674.81689
483.38	2577.69444
483.589	2919.611
483.799	2826.77988
484.008	2959.6885
484.217	2835.22021
484.426	3058.80427
484.636	3016.63146
484.845	3010.30501
485.054	3065.12965
485.263	3098.86266
485.472	3046.15307
485.682	3157.88565
485.891	3202.14455
486.1	3280.10677
486.309	3216.89591
486.518	3551.73531
486.727	3435.96088
486.936	3583.30053
487.146	3490.69746
487.355	3576.98782
487.564	3650.62562
487.773	3640.10735
487.982	3612.75763
488.191	3827.26075
488.4	3757.88471
488.609	3886.1084
488.818	3820.95472
489.027	4003.75642
489.236	3875.60103
489.445	4087.75146
489.654	3993.25472
489.863	4066.7558
490.072	4180.10755
490.281	4423.39428
490.49	4301.7871
490.698	4268.2275
490.907	4062.55642
491.116	4427.58632
491.325	4421.29822
491.534	4385.66193
491.743	4511.4088
491.952	4444.35363
492.16	4448.54524
492.369	4745.92259
492.578	4662.19993
492.787	4848.43349
492.996	4712.43786
493.204	4950.8896
493.413	4892.34999
493.622	4934.16583
493.831	5019.85956
494.039	4829.60906
494.248	4913.25905
494.457	5282.96727
494.665	5047.02265
494.874	5272.53353
495.083	5105.51447
495.291	5278.79384
495.5	5076.27083
495.709	5153.54772
495.917	5118.04607
496.126	5451.91211
496.335	5433.14807
496.543	5391.44338
496.752	5349.7293
496.96	5376.84452
497.169	5643.61295
497.377	5710.24473
497.586	5439.40296
497.794	5939.10715
498.003	5566.53985
498.211	5789.33858
498.42	5731.06221
498.628	6113.6827
498.837	5876.71845
499.045	5891.27771
499.254	5889.19789
499.462	5978.60903
499.671	5964.05669
499.879	5991.08153
500.087	5968.21462
500.296	6242.42965
500.504	6038.88495
500.713	6333.7438
500.921	6067.97659
501.129	6267.338
501.338	5943.26565
501.546	6447.82293
501.754	6259.03559
501.962	6271.48907
502.171	6263.18684
502.379	6526.60013
502.587	6373.16093
502.795	6387.6809
503.004	6342.04284
503.212	6545.25299
503.42	6302.61906
503.628	6644.70326
503.837	6636.41777
504.045	6810.33598
504.253	6764.80159
504.461	7033.70899
504.669	6582.55307
504.877	6773.08139
505.085	6671.62857
505.294	6955.14486
505.502	6735.8194
505.71	6911.71386
505.918	6727.53795
506.126	6779.291
506.334	6857.92831
506.542	7229.97796
506.75	7037.84305
506.958	7095.71041
507.166	6946.87305
507.374	7118.43921
507.582	6915.85057
507.79	7050.24467
507.998	6901.37168
508.206	7339.38853
508.414	7180.41317
508.622	7293.98032
508.83	7252.6909
509.037	7289.85177
509.245	7192.80557
509.453	7314.62173
509.661	7293.98032
509.869	7312.55769
510.077	7487.92343
510.285	7613.67794
510.492	7533.28672
510.7	7706.39682
510.908	7516.79218
511.116	7591.00678
511.324	7555.96446
511.531	7656.95209
511.739	7762.00762
511.947	7714.63642
512.155	7586.88448
512.362	7776.42274
512.57	7735.23396
512.778	7844.36596
512.985	7572.45574
513.193	7646.64957
513.401	7652.83115
513.608	7751.71048
513.816	7704.33686
514.024	7860.83363
514.231	7901.99701
514.439	7996.64157
514.646	8097.4112
514.854	8167.30455
515.061	7856.71683
515.269	8159.083
515.477	7916.40225
515.684	8138.52774
515.892	8189.91216
516.099	8109.747
516.307	8233.06548
516.514	8467.17562
516.722	8011.04022
516.929	8222.79167
517.136	8278.26437
517.344	8422.01608
517.551	8442.54429
517.759	8762.53976
517.966	8329.61521
518.173	8417.9102
518.381	8549.26023
518.588	8664.128
518.796	8729.74055
519.003	8696.93664
519.21	8783.03689
519.418	8725.64032
519.625	8596.44517
519.832	8795.33429
520.039	8694.88624
520.247	8807.63104
520.454	8727.69044
520.661	9018.6246
520.868	8834.27176
521.076	8750.2406
521.283	8682.58344
521.49	8840.41919
521.697	8930.56287
521.904	9110.74761
522.112	8774.83825
522.319	9305.11576
522.526	8983.81339
522.733	9237.61567
522.94	9313.29635
523.147	9221.24926
523.354	8797.3838
523.561	9348.06093
523.768	9080.04384
523.975	9274.43615
524.183	9343.97123
524.39	9532.03015
524.597	9360.32965
524.804	9497.29041
525.011	9280.57238
525.218	9388.95434
525.425	9311.25123
525.632	9321.47669
525.838	9460.50212
526.045	9566.76529
526.252	9572.89455
526.459	9552.46314
526.666	9542.24684
526.873	9677.07038
527.08	9480.9407
527.287	9875.09874
527.494	9611.7099
527.701	9879.18031
527.907	9607.62434
528.114	10052.59331
528.321	9813.86799
528.528	9948.55809
528.735	10201.44241
528.941	10050.55376
529.148	9805.70288
529.355	10095.42056
529.562	9991.40065
529.768	10095.42056
529.975	9905.70911
530.182	10309.46497
530.388	10026.07807
530.595	10464.3
530.802	10136.20264
531.008	10354.29345
531.215	10160.66921
531.422	10331.88001
531.628	10443.93127
531.835	10445.9682
532.042	10380.77999
532.248	10635.34717
532.455	10431.70942
532.661	10425.59832
532.868	10427.63536
533.074	10629.23986
533.281	10698.44959
533.487	10773.75019
533.694	10619.06076
533.9	10790.02926
534.107	10838.86195
534.313	10889.72221
534.52	10309.46497
534.726	10842.93104
534.933	10928.37121
535.139	11001.58971
535.345	10910.0643
535.552	10649.59713
535.758	11001.58971
535.965	11131.72059
536.171	10956.8468
536.377	11377.63114
536.584	10942.60928
536.79	11119.52271
536.996	10999.55606
537.203	11202.86731
537.409	10985.32019
537.615	11007.6906
537.821	11017.85852
538.028	11454.82883
538.234	11095.12578
538.44	11369.50425
538.646	11117.48969
538.853	11302.45126
539.059	11119.52271
539.265	11605.12151
539.471	11320.73952
539.677	11489.3601
539.883	11733.03371
540.09	11781.75292
540.296	11619.33574
540.502	11745.21398
540.708	11800.02135
540.914	11635.58003
541.12	11724.91335
541.326	11913.67613
541.532	11659.94538
541.738	11921.79333
541.944	11820.31878
542.15	11854.82247
542.356	11895.41195
542.562	11749.274
542.768	11877.14709
542.974	12051.65101
543.18	12071.93835
543.386	12327.49469
543.592	12049.62223
543.798	11980.63915
544.004	11986.72626
544.21	12146.99484
544.415	12173.36359
544.621	12250.43433
544.827	12201.7593
545.033	12530.23799
545.239	12280.85412
545.445	12501.85789
545.651	12445.09389
545.856	12511.99379
546.062	12445.09389
546.268	12485.64013
546.474	12315.32794
546.679	12540.37344
546.885	12114.53926
547.091	12479.55836
547.297	12327.49469
547.502	12469.42195
547.708	12601.18282
547.914	12858.54971
548.119	12317.35575
548.325	12503.88508
548.531	12195.67463
548.736	12848.41888
548.942	12303.16094
549.147	12542.40051
549.353	12347.77206
549.559	12568.75185
549.764	12505.91227
549.97	12771.42012
550.175	12929.46172
550.381	13085.44597
550.586	12700.49296
550.792	13117.85463
550.997	12769.39372
551.203	13115.82912
551.408	13142.16033
551.614	12965.92825
551.819	12919.33183
552.025	13136.08397
552.23	12949.72111
552.435	13081.3948
552.641	13336.58267
552.846	13377.08238
553.052	13239.37655
553.257	13040.88205
553.462	13065.18993
553.668	13069.24118
553.873	12990.23835
554.078	13470.22569
554.283	13287.98083
554.489	13634.21981
554.694	13354.80774
554.899	13356.83273
555.105	13496.54733
555.31	13520.84368
555.515	13654.46441
555.72	13504.64617
555.925	13344.68274
556.131	13901.42345
556.336	13555.2626
556.541	13850.82066
556.746	13500.59676
556.951	13577.53311
557.156	13652.43997
557.361	13581.58225
557.567	13694.95263
557.772	13757.70685
557.977	13735.43957
558.182	13717.2206
558.387	13421.63021
558.592	13937.85642
558.797	13567.4102
559.002	13630.17085
559.207	13862.96549
559.412	13719.24494
559.617	13721.26928
559.822	14057.26978
560.027	13883.20665
560.232	13846.77236
560.437	14008.69589
560.642	13836.65156
560.847	14041.07864
561.051	14186.79378
561.256	13968.21657
561.461	14194.88874
561.666	14156.43738
561.871	14178.69879
562.076	14411.41793
562.281	14207.03112
562.485	13919.64004
562.69	14146.31848
562.895	14113.93763
563.1	13925.71219
563.305	14168.58
563.509	14379.04098
563.714	14247.50521
563.919	14409.39438
564.123	14176.67503
564.328	14544.96891
564.533	14609.71889
564.737	14397.25306
564.942	14255.59994
565.147	14593.5315
565.351	13952.02456
565.556	14356.78159
565.761	14346.66362
565.965	14449.86505
566.17	14524.73429
566.374	14530.80469
566.579	14478.19417
566.784	14662.3274
566.988	14283.93125
567.193	14884.89535
567.397	14492.35863
567.602	14799.91592
567.806	14304.16768
568.011	14678.5145
568.215	14899.05849
568.42	15135.78257
568.624	14791.82258
568.828	14963.80396
569.033	14684.58464
569.237	14846.45241
569.442	14718.98198
569.646	14542.94546
569.85	14905.1284
570.055	14915.2449
570.259	14826.2192
570.463	14971.89712
570.668	14899.05849
570.872	14919.2915
571.076	15168.1549
571.281	15113.52658
571.485	15012.3628
571.689	15303.71423
571.893	14988.08341
572.098	15366.43603
572.302	15149.94546
572.506	15180.29452
572.71	14739.21559
572.914	15202.5505
573.119	15263.24868
573.323	15236.94612
