Data from absorb_only_2.23.25_USB4F045381__2__0107.txt Node

Date: Sun Feb 23 19:11:49 EST 2025
User: ssocol
Spectrometer: USB4F04538
Trigger mode: 4
Integration Time (sec): 2.600000E-3
Scans to average: 1
Electric dark correction enabled: true
Nonlinearity correction enabled: true
Boxcar width: 0
XAxis mode: Wavelengths
Number of Pixels in Spectrum: 3648
>>>>>Begin Spectral Data<<<<<
345.52	21.7775
345.736	21.7775
345.952	21.7775
346.168	-33.01256
346.384	44.96277
346.6	4.91728
346.816	11.23968
347.032	-22.47729
347.248	74.47535
347.464	-43.54722
347.68	-20.37016
347.896	4.91728
348.112	-45.65407
348.328	11.23968
348.544	32.3159
348.76	-39.33343
348.975	32.3159
349.191	-73.04089
349.407	-89.89218
349.623	-64.61464
349.839	-5.61958
350.055	-81.46674
350.27	2.80986
350.486	-73.04089
350.702	25.99279
350.918	2.80986
351.133	4.91728
351.349	36.53143
351.565	34.42366
351.781	49.17857
351.996	30.20817
352.212	11.23968
352.428	44.96277
352.644	34.42366
352.859	-56.18797
353.075	57.61047
353.291	-45.65407
353.506	-3.51226
353.722	-22.47729
353.938	-22.47729
354.153	-43.54722
354.369	-3.51226
354.584	-22.47729
354.8	-5.61958
355.016	-35.11954
355.231	17.5623
355.447	-9.83416
355.662	-64.61464
355.878	-9.83416
356.093	-45.65407
356.309	-47.7609
356.524	63.93463
356.74	-43.54722
356.955	19.66988
357.171	-47.7609
357.386	19.66988
357.602	11.23968
357.817	4.91728
358.033	9.13219
358.248	-41.44034
358.464	-60.40135
358.679	21.7775
358.895	-11.94141
359.11	19.66988
359.325	-9.83416
359.541	28.10047
359.756	30.20817
359.972	-5.61958
360.187	-39.33343
360.402	-45.65407
360.618	32.3159
360.833	40.74705
361.048	-45.65407
361.264	-9.83416
361.479	-30.90556
361.694	-24.5844
361.909	36.53143
362.125	-45.65407
362.34	-18.26301
362.555	19.66988
362.77	-5.61958
362.986	21.7775
363.201	21.7775
363.416	0.70246
363.631	-9.83416
363.847	-54.08124
364.062	-18.26301
364.277	-5.61958
364.492	30.20817
364.707	-43.54722
364.922	4.91728
365.138	4.91728
365.353	-1.40491
365.568	-37.2265
365.783	32.3159
365.998	66.04272
366.213	-47.7609
366.428	-54.08124
366.643	-41.44034
366.858	9.13219
367.073	7.02472
367.288	15.45473
367.503	-22.47729
367.718	-16.15583
367.933	-30.90556
368.148	13.34719
368.363	30.20817
368.578	72.36716
368.793	13.34719
369.008	13.34719
369.223	38.63923
369.438	-64.61464
369.653	76.58356
369.868	23.88513
370.083	-14.04863
370.298	32.3159
370.513	13.34719
370.728	-5.61958
370.943	-43.54722
371.157	-22.47729
371.372	15.45473
371.587	11.23968
371.802	4.91728
372.017	-39.33343
372.232	-1.40491
372.446	-60.40135
372.661	-5.61958
372.876	-30.90556
373.091	-41.44034
373.306	-22.47729
373.52	17.5623
373.735	-11.94141
373.95	61.82655
374.165	-1.40491
374.379	11.23968
374.594	-45.65407
374.809	28.10047
375.023	-14.04863
375.238	25.99279
375.453	-14.04863
375.667	-9.83416
375.882	4.91728
376.097	-35.11954
376.311	95.55848
376.526	53.39447
376.741	17.5623
376.955	66.04272
377.17	-98.3172
377.384	-1.40491
377.599	25.99279
377.813	28.10047
378.028	21.7775
378.242	-47.7609
378.457	-14.04863
378.672	23.88513
378.886	-33.01256
379.101	-5.61958
379.315	-56.18797
379.53	-35.11954
379.744	-24.5844
379.958	36.53143
380.173	-28.79853
380.387	-28.79853
380.602	101.88386
380.816	44.96277
381.031	-30.90556
381.245	-30.90556
381.459	44.96277
381.674	-22.47729
381.888	-45.65407
382.103	4.91728
382.317	53.39447
382.531	-56.18797
382.746	-79.36032
382.96	21.7775
383.174	-14.04863
383.388	23.88513
383.603	4.91728
383.817	19.66988
384.031	28.10047
384.246	-39.33343
384.46	-20.37016
384.674	-64.61464
384.888	-3.51226
385.103	-77.25387
385.317	-26.69148
385.531	23.88513
385.745	9.13219
385.959	15.45473
386.174	63.93463
386.388	-18.26301
386.602	-35.11954
386.816	2.80986
387.03	-11.94141
387.244	-20.37016
387.458	19.66988
387.672	101.88386
387.887	0.70246
388.101	-68.82782
388.315	44.96277
388.529	-54.08124
388.743	-51.97449
388.957	0.70246
389.171	-20.37016
389.385	-26.69148
389.599	-30.90556
389.813	-43.54722
390.027	99.77538
390.241	-18.26301
390.455	-83.57314
390.669	7.02472
390.883	-33.01256
391.097	-26.69148
391.311	25.99279
391.525	-56.18797
391.738	61.82655
391.952	66.04272
392.166	-14.04863
392.38	7.02472
392.594	-20.37016
392.808	15.45473
393.022	-70.93437
393.236	0.70246
393.449	32.3159
393.663	4.91728
393.877	112.42659
394.091	-14.04863
394.305	53.39447
394.518	40.74705
394.732	-5.61958
394.946	19.66988
395.16	32.3159
395.373	-41.44034
395.587	28.10047
395.801	2.80986
396.015	-20.37016
396.228	-18.26301
396.442	-11.94141
396.656	61.82655
396.869	36.53143
397.083	38.63923
397.297	-9.83416
397.51	-1.40491
397.724	-20.37016
397.938	78.6918
398.151	-22.47729
398.365	47.07066
398.578	32.3159
398.792	34.42366
399.005	-11.94141
399.219	49.17857
399.433	13.34719
399.646	78.6918
399.86	15.45473
400.073	7.02472
400.287	-33.01256
400.5	-35.11954
400.714	72.36716
400.927	-5.61958
401.141	-35.11954
401.354	72.36716
401.567	30.20817
401.781	70.25899
401.994	32.3159
402.208	17.5623
402.421	2.80986
402.635	78.6918
402.848	-9.83416
403.061	70.25899
403.275	-7.72688
403.488	11.23968
403.701	-9.83416
403.915	23.88513
404.128	-30.90556
404.341	19.66988
404.555	-35.11954
404.768	-1.40491
404.981	36.53143
405.195	61.82655
405.408	36.53143
405.621	32.3159
405.834	-3.51226
406.048	28.10047
406.261	-5.61958
406.474	36.53143
406.687	44.96277
406.9	30.20817
407.114	7.02472
407.327	44.96277
407.54	23.88513
407.753	23.88513
407.966	32.3159
408.179	103.99236
408.392	101.88386
408.605	-14.04863
408.819	-20.37016
409.032	82.90833
409.245	-3.51226
409.458	91.34168
409.671	63.93463
409.884	-18.26301
410.097	53.39447
410.31	38.63923
410.523	34.42366
410.736	99.77538
410.949	57.61047
411.162	68.15085
411.375	78.6918
411.588	-9.83416
411.801	137.73137
412.014	44.96277
412.227	89.23331
412.44	-11.94141
412.653	30.20817
412.865	32.3159
413.078	28.10047
413.291	78.6918
413.504	78.6918
413.717	28.10047
413.93	21.7775
414.143	47.07066
414.356	42.8549
414.568	28.10047
414.781	80.80005
414.994	40.74705
415.207	13.34719
415.42	66.04272
415.632	103.99236
415.845	95.55848
416.058	108.20943
416.271	103.99236
416.483	61.82655
416.696	70.25899
416.909	47.07066
417.121	129.2961
417.334	44.96277
417.547	44.96277
417.759	55.50246
417.972	72.36716
418.185	57.61047
418.397	135.62252
418.61	-30.90556
418.823	137.73137
419.035	141.94913
419.248	89.23331
419.46	47.07066
419.673	78.6918
419.885	116.64384
420.098	72.36716
420.311	74.47535
420.523	173.58505
420.736	85.01664
420.948	97.66692
421.161	120.86117
421.373	163.03922
421.586	61.82655
421.798	89.23331
422.01	44.96277
422.223	61.82655
422.435	108.20943
422.648	163.03922
422.86	196.78769
423.073	152.49392
423.285	156.71198
423.497	114.5352
423.71	99.77538
423.922	118.75249
424.134	74.47535
424.347	131.40488
424.559	150.38492
424.771	53.39447
424.984	63.93463
425.196	156.71198
425.408	78.6918
425.621	173.58505
425.833	165.14835
426.045	156.71198
426.257	112.42659
426.47	122.96987
426.682	213.66387
426.894	165.14835
427.106	120.86117
427.318	230.54133
427.531	247.42003
427.743	158.82104
427.955	141.94913
428.167	112.42659
428.379	179.9128
428.591	232.6511
428.804	215.77348
429.016	207.33515
429.228	129.2961
429.44	177.80353
429.652	194.67826
429.864	171.47585
430.076	243.20024
430.288	224.21213
430.5	196.78769
430.712	213.66387
430.924	228.43158
431.136	139.84024
431.348	154.60294
431.56	209.44471
431.772	241.09037
431.984	234.76089
432.196	281.18111
432.408	336.05295
432.62	346.60661
432.832	209.44471
433.044	289.62213
433.256	268.52014
433.468	333.94227
433.679	384.60334
433.891	289.62213
434.103	293.84276
434.315	281.18111
434.527	350.82819
434.739	336.05295
434.95	378.27017
435.162	409.9375
435.374	276.96072
435.586	382.49226
435.798	287.51185
436.009	416.27141
436.221	395.15895
436.433	395.15895
436.645	338.16365
436.856	348.71739
437.068	380.38121
437.28	500.73695
437.491	437.38548
437.703	342.38509
437.915	483.8419
438.126	604.23877
438.338	513.40885
438.55	496.5131
438.761	431.05109
438.973	477.5065
439.184	445.83155
439.396	475.39473
439.608	528.19339
439.819	561.98919
440.031	466.9478
440.242	462.72443
440.454	509.18483
440.665	602.12617
440.877	570.43868
441.088	561.98919
441.3	576.77594
441.511	593.67589
441.723	483.8419
441.934	551.42762
442.146	511.29683
442.357	593.67589
442.569	602.12617
442.78	595.78844
442.991	517.63294
443.203	707.77125
443.414	671.84861
443.626	705.65806
443.837	720.4506
444.048	737.357
444.26	686.63989
444.471	686.63989
444.682	711.99765
444.894	707.77125
445.105	678.18766
445.316	826.12623
445.528	646.49347
445.739	735.24366
445.95	754.26407
446.161	811.33018
446.373	785.96659
446.584	788.08017
446.795	895.88486
447.006	826.12623
447.217	792.30735
447.429	887.42878
447.64	752.15065
447.851	855.71966
448.062	781.73945
448.273	775.39883
448.484	906.45513
448.695	792.30735
448.907	933.93875
449.118	914.9115
449.329	864.17524
449.54	900.11294
449.751	813.44387
449.962	889.54279
450.173	868.40308
450.384	923.36798
450.595	1020.6257
450.806	1223.6361
451.017	1026.96908
451.228	1081.94714
451.439	1041.77049
451.65	957.1951
451.861	1035.42699
452.072	1219.40633
452.283	1210.94683
452.494	1242.6702
452.705	1012.16795
452.915	1187.68349
453.126	1084.06175
453.337	1183.45384
453.548	1141.15816
453.759	1282.85404
453.97	1397.06455
454.181	1246.90003
454.391	1151.73193
454.602	1358.99392
454.813	1456.28593
455.024	1551.46282
455.235	1301.88878
455.445	1401.29464
455.656	1447.82572
455.867	1492.24179
456.078	1464.74614
456.288	1373.79913
456.499	1388.60438
456.71	1422.44511
456.921	1492.24179
457.131	1587.418
457.342	1562.03792
457.553	1568.38296
457.763	1625.48765
457.974	1906.74836
458.184	1756.61008
458.395	1946.9219
458.606	1697.39492
458.816	2039.94691
459.027	1989.20753
459.237	1965.95074
459.448	2107.5932
459.659	1968.06502
459.869	2103.36553
460.08	2073.77098
460.29	2249.20163
460.501	2352.74079
460.711	2297.80448
460.922	2143.52718
461.132	2407.67037
461.343	2200.59402
461.553	2285.12595
461.764	2405.55782
461.974	2369.64294
462.184	2382.31912
462.395	2454.14373
462.605	2711.75866
462.816	2563.96854
463.026	2479.49062
463.236	2559.74508
463.447	2745.53049
463.657	2732.86645
463.867	2914.33725
464.078	2741.3092
464.288	2935.4317
464.498	2973.39799
464.709	3024.01215
464.919	2931.21293
465.129	3220.05681
465.339	3112.56554
465.55	3177.90843
465.76	3108.34935
465.97	3257.98469
466.18	3205.30563
466.391	3710.57069
466.601	3270.6261
466.811	3477.01446
467.021	3535.95114
467.231	3681.12593
467.441	3331.71765
467.651	3937.58722
467.862	3718.98279
468.072	3891.36189
468.282	3830.4137
468.492	3912.37461
468.702	4019.508
468.912	4374.1312
469.122	4147.57766
469.332	4445.40154
469.542	4225.22126
469.752	4554.35413
469.962	4512.45635
470.172	4608.80796
470.382	4644.40422
470.592	4550.16475
470.802	4592.05454
471.012	4784.6321
471.222	5094.02644
471.432	5123.26732
471.642	5160.85605
471.852	5384.14409
472.062	5438.36049
472.272	5386.22963
472.482	5398.74238
472.691	5744.5923
472.901	5465.46273
473.111	5411.25428
473.321	5736.26621
473.531	6044.08023
473.741	5754.99938
473.95	6044.08023
474.16	6170.79934
474.37	6303.65664
474.58	6183.25879
474.79	6388.718
474.999	6343.0802
475.209	6334.7812
475.419	6674.73508
475.628	6817.57906
475.838	6825.85654
476.048	6983.05952
476.258	7057.47858
476.467	7418.82745
476.677	7336.29286
476.886	7398.19707
477.096	7699.18688
477.306	7464.20665
477.515	7528.13232
477.725	7740.38302
477.935	7532.25585
478.144	8003.84102
478.354	7876.27087
478.563	8123.10997
478.773	8246.42069
478.982	8470.25435
479.192	8544.13083
479.401	8529.76788
479.611	8665.15335
479.82	8773.8134
480.03	8823.00106
480.239	9023.74347
480.449	8859.88497
480.658	9406.33206
480.868	9224.31804
481.077	9275.45887
481.287	9367.48612
481.496	9604.56013
481.705	9821.01227
481.915	10059.73162
482.124	9969.98017
482.333	9769.97767
482.543	10233.03785
482.752	10092.36167
482.961	10192.26892
483.171	10422.54272
483.38	10377.72396
483.589	10516.23444
483.799	10532.52589
484.008	11173.39381
484.217	10707.60865
484.426	11008.7074
484.636	10835.8101
484.845	11384.74205
485.054	11134.77001
485.263	11640.65625
485.472	11315.65953
485.682	11407.08982
485.891	11971.50834
486.1	11492.40685
486.309	11876.13236
486.518	11949.18792
486.727	12072.9527
486.936	12135.83845
487.146	12285.92392
487.355	12371.09017
487.564	12490.70822
487.773	12746.0898
487.982	12393.39361
488.191	12433.94322
488.4	12673.13344
488.609	12904.13675
488.818	13076.33081
489.027	13197.85839
489.236	13284.94314
489.445	13489.4608
489.654	13126.96934
489.863	13459.08942
490.072	13479.3371
490.281	13768.84036
490.49	13732.40309
490.698	13849.80859
490.907	13811.34926
491.116	13995.54022
491.325	14256.61178
491.534	14070.42498
491.743	14183.75816
491.952	14428.61802
492.16	14535.86335
492.369	14507.53477
492.578	14475.15892
492.787	14796.88092
492.996	14669.40926
493.204	15146.91056
493.413	14823.18421
493.622	15076.09604
493.831	15367.44767
494.039	15391.72717
494.248	15498.96242
494.457	15450.40288
494.665	15389.70388
494.874	15428.14653
495.083	15644.64329
495.291	15996.72585
495.5	15812.58647
495.709	15919.8312
495.917	16033.15032
496.126	15646.66666
496.335	15786.28166
496.543	15980.53734
496.752	16134.33194
496.96	16644.35544
497.169	16316.46919
497.377	16435.87832
497.586	16460.16576
497.794	16796.17423
498.003	16500.64549
498.211	17026.9656
498.42	16875.12541
498.628	16887.27208
498.837	17045.18744
499.045	17184.89561
499.254	16646.37961
499.462	17304.36707
499.671	17239.56772
499.879	17387.39571
500.087	17336.76788
500.296	17640.56418
500.504	17859.34296
500.713	17699.30649
500.921	17782.36074
501.129	17575.7483
501.338	17705.38344
501.546	17944.43437
501.754	17814.77371
501.962	18171.37538
502.171	17966.72123
502.379	17962.66905
502.587	17794.5155
502.795	18177.45478
503.004	18057.89924
503.212	18544.30748
503.42	18349.7183
503.628	18526.06325
503.837	18734.8772
504.045	18765.29047
504.253	18982.26445
504.461	18736.90472
504.669	19059.33171
504.877	19144.51813
505.085	18933.5934
505.294	19302.74063
505.502	19160.74493
505.71	19189.14246
505.918	18907.23088
506.126	19191.17089
506.334	19022.82544
506.542	19394.03425
506.75	19298.68333
506.958	19856.71809
507.166	19434.61188
507.374	19594.90977
507.582	19373.74605
507.79	19525.91762
507.998	19605.05608
508.206	19759.29289
508.414	19600.99754
508.622	20080.02068
508.83	20071.89969
509.037	20047.53714
509.245	19864.83729
509.453	20220.11828
509.661	20102.35374
509.869	20494.28013
510.077	20027.23547
510.285	20498.34236
510.492	20506.46688
510.7	20723.82239
510.908	20411.00808
511.116	20746.17005
511.324	20274.94453
511.531	20504.43574
511.739	20677.09709
511.947	20803.05728
512.155	20563.34034
512.362	20618.18571
512.57	20772.58157
512.778	20786.80345
512.985	21280.63069
513.193	21026.57414
513.401	21203.39079
513.608	21481.88825
513.816	21211.52103
514.024	21205.42334
514.231	21174.93545
514.439	21673.01734
514.646	21518.48473
514.854	21227.7817
515.061	21538.81667
515.269	21748.25852
515.477	21573.38187
515.684	21782.83058
515.892	21813.33626
516.099	22395.14128
516.307	22037.07103
516.514	22342.23735
516.722	22053.34444
516.929	22207.95387
517.136	21986.21816
517.344	22423.62903
517.551	22244.57504
517.759	22220.16079
517.966	22568.11349
518.173	22289.33588
518.381	22545.72739
518.588	22631.20389
518.796	22765.53662
519.003	22732.96971
519.21	22604.74621
519.418	22704.4744
519.625	22726.86352
519.832	23217.49202
520.039	22989.45785
520.247	23013.8881
520.454	23188.9855
520.661	23730.71505
520.868	23215.45582
521.076	23716.45623
521.283	23408.90923
521.49	23400.76325
521.697	23474.07891
521.904	23950.72646
522.112	23009.81636
522.319	23681.82828
522.526	23620.72224
522.733	24407.15077
522.94	23830.53083
523.147	24254.31497
523.354	24227.82496
523.561	24419.37827
523.768	24130.01964
523.975	24529.42996
524.183	23940.54
524.39	24052.59493
524.597	23924.24181
524.804	24449.94743
525.011	24486.63119
525.218	24136.13229
525.425	24474.40318
525.632	24802.55279
525.838	24698.59786
526.045	24890.2059
526.252	24684.33002
526.459	24753.63204
526.666	24504.97339
526.873	24990.09496
527.08	25000.28804
527.287	25161.34608
527.494	24694.52132
527.701	25532.44267
527.907	25257.17198
528.114	25340.76868
528.321	25597.69749
528.528	25173.57891
528.735	25693.54419
528.941	25687.42619
529.148	25369.3147
529.355	25834.26302
529.562	25726.17383
529.768	26064.73469
529.975	25699.66221
530.182	26295.22889
530.388	25881.17129
530.595	26048.41735
530.802	25616.05078
531.008	26558.38535
531.215	26442.10362
531.422	26505.34393
531.628	26462.50355
531.835	26209.55593
532.042	26389.06455
532.248	26776.68215
532.455	26841.97049
532.661	26937.86543
532.868	26625.70868
533.074	26695.07385
533.281	26746.07876
533.487	26970.51123
533.694	26943.98649
533.9	27625.54003
534.107	27043.96559
534.313	27135.78606
534.52	27248.01478
534.726	27399.01969
534.933	27099.05754
535.139	27564.31681
535.345	27270.46101
535.552	27454.11782
535.758	27576.56137
535.965	27864.32087
536.171	27890.85306
536.377	27754.11231
536.584	27594.92828
536.79	27815.33887
536.996	28131.69256
537.203	27980.65578
537.409	27905.13971
537.615	28315.39412
537.821	28352.13549
538.028	28178.63767
538.234	28380.71235
538.44	28390.91843
538.646	27874.52554
538.853	28386.83599
539.059	28517.47596
539.265	28492.98063
539.471	28584.83888
539.677	28386.83599
539.883	28548.09533
540.09	28476.6505
540.296	28925.75364
540.502	29089.07637
540.708	28940.04411
540.914	29552.54094
541.12	29329.98954
541.326	29374.90716
541.532	29338.15634
541.738	29740.39235
541.944	29101.32585
542.15	29503.53772
542.356	29773.06309
542.562	29615.83768
542.768	29530.08106
542.974	29156.44893
543.18	29650.54923
543.386	30036.48134
543.592	30191.68234
543.798	30181.47154
544.004	30265.20096
544.21	30336.67888
544.415	29709.76378
544.621	30790.08884
544.827	30342.80563
545.033	30916.72847
545.239	30800.30152
545.445	31012.73308
545.651	30630.7754
545.856	30765.57855
546.062	30577.6727
546.268	30310.12977
546.474	30373.43954
546.679	30544.99455
546.885	30054.86006
547.091	30244.77897
547.297	29832.27953
547.502	30498.02027
547.708	30634.86026
547.914	30790.08884
548.119	30745.15346
548.325	30555.20644
548.531	30522.52851
548.736	31096.48437
548.942	30702.2612
549.147	31055.62977
549.353	31069.92882
549.559	31206.79476
549.764	31006.60503
549.97	30808.47169
550.175	31519.36554
550.381	31934.14498
550.586	31386.56945
550.792	32097.62593
550.997	31825.84563
551.203	31972.97058
551.408	31895.32008
551.614	32077.19012
551.819	32340.82782
552.025	32506.38604
552.23	31909.62391
552.435	31709.37851
552.641	32504.34202
552.846	32116.01832
553.052	32259.07597
553.257	32281.55739
553.462	32301.99527
553.668	32512.51811
553.873	32169.15284
554.078	32195.72062
554.283	32363.31019
554.489	32516.60617
554.694	32498.20998
554.899	32559.53132
555.105	32780.30575
555.31	32788.48313
555.515	32459.37419
555.72	33060.40418
555.925	33046.09139
556.131	33011.33229
556.336	32541.1347
556.541	33219.89871
556.746	33150.37338
556.951	32925.46017
557.156	32874.348
557.361	33095.16438
557.567	33301.69742
557.772	33295.56236
557.977	33260.79749
558.182	33653.48633
558.387	33788.49987
558.592	33688.26118
558.797	33446.90167
559.002	33459.17314
559.207	33287.38231
559.412	33518.48681
559.617	33172.86651
559.822	34130.19141
560.027	33651.44078
560.232	33833.5076
560.437	34019.69356
560.642	34281.63184
560.847	34234.56031
561.051	33753.72229
561.256	33782.36258
561.461	34709.4647
561.666	34285.72512
561.871	34171.11924
562.076	34320.51855
562.281	34531.35006
562.485	34107.68173
562.69	34150.65514
562.895	34117.91335
563.1	34289.8184
563.305	34418.76488
563.509	34541.58568
563.714	34154.74793
563.919	33915.34404
564.123	34236.60686
564.328	34122.00602
564.533	34598.90707
564.737	34113.82069
564.942	34719.70215
565.147	34731.98722
565.351	34639.85291
565.556	34496.5497
565.761	34654.18435
565.965	34809.79629
566.17	34830.2734
566.374	35082.17864
566.579	34899.89891
566.784	34643.94759
566.988	34867.13333
567.193	35147.72639
567.397	35192.7933
567.602	35391.52541
567.806	35397.67251
568.011	35575.95832
568.215	35631.2964
568.42	35446.85093
568.624	35645.64394
