Data from absorb_only_2.23.25_USB4F045381__78__0183.txt Node

Date: Sun Feb 23 19:28:42 EST 2025
User: ssocol
Spectrometer: USB4F04538
Trigger mode: 4
Integration Time (sec): 2.600000E-3
Scans to average: 1
Electric dark correction enabled: true
Nonlinearity correction enabled: true
Boxcar width: 0
XAxis mode: Wavelengths
Number of Pixels in Spectrum: 3648
>>>>>Begin Spectral Data<<<<<
345.52	-25.81353
345.736	-25.81353
345.952	-25.81353
346.168	60.59685
346.384	12.11781
346.6	-38.45555
346.816	22.65567
347.032	14.22533
347.248	24.76332
347.464	20.54805
347.68	-21.59933
347.896	-42.66935
348.112	-30.02763
348.328	52.16483
348.544	7.90283
348.76	3.68794
348.975	-13.17063
349.191	-17.38502
349.407	18.44046
349.623	-15.27784
349.839	7.90283
350.055	3.68794
350.27	24.76332
350.486	12.11781
350.702	35.30189
350.918	-38.45555
351.133	-89.01455
351.349	50.05688
351.565	-13.17063
351.781	-63.73688
351.996	-46.88306
352.212	-38.45555
352.428	-74.26969
352.644	-8.95613
352.859	-40.56246
353.075	-30.02763
353.291	-8.95613
353.506	-13.17063
353.722	66.92111
353.938	-0.52684
354.153	14.22533
354.369	7.90283
354.584	-32.13465
354.8	-4.74153
355.016	-38.45555
355.231	20.54805
355.447	7.90283
355.662	-34.24164
355.878	20.54805
356.093	-32.13465
356.309	-0.52684
356.524	35.30189
356.74	-63.73688
356.955	-53.20343
357.171	-67.95008
357.386	-4.74153
357.602	-25.81353
357.817	3.68794
358.033	-0.52684
358.248	-57.41689
358.464	-8.95613
358.679	-34.24164
358.895	43.73317
359.11	50.05688
359.325	-42.66935
359.541	-36.3486
359.756	-72.16318
359.972	41.62532
360.187	3.68794
360.402	3.68794
360.618	-0.52684
360.833	3.68794
361.048	-82.69548
361.264	-0.52684
361.479	-17.38502
361.694	60.59685
361.909	-0.52684
362.125	41.62532
362.34	-4.74153
362.555	-59.52357
362.77	-8.95613
362.986	-34.24164
363.201	33.19413
363.416	-110.07642
363.631	-25.81353
363.847	7.90283
364.062	-15.27784
364.277	-38.45555
364.492	-13.17063
364.707	-70.05664
364.922	35.30189
365.138	-17.38502
365.353	12.11781
365.568	28.97868
365.783	28.97868
365.998	-17.38502
366.213	12.11781
366.428	-21.59933
366.643	10.01031
366.858	-0.52684
367.073	24.76332
367.288	-8.95613
367.503	-32.13465
367.718	-32.13465
367.933	-6.84884
368.148	58.48881
368.363	18.44046
368.578	-0.52684
368.793	20.54805
369.008	-8.95613
369.223	-23.70644
369.438	-67.95008
369.653	7.90283
369.868	-8.95613
370.083	33.19413
370.298	-34.24164
370.513	-17.38502
370.728	-53.20343
370.943	-6.84884
371.157	-34.24164
371.372	-15.27784
371.587	7.90283
371.802	62.70491
372.017	-46.88306
372.232	-76.37618
372.446	5.79537
372.661	20.54805
372.876	-0.52684
373.091	-17.38502
373.306	-15.27784
373.52	-143.7699
373.735	-8.95613
373.95	71.13739
374.165	-63.73688
374.379	16.33288
374.594	-6.84884
374.809	-4.74153
375.023	-67.95008
375.238	-44.77622
375.453	18.44046
375.667	7.90283
375.882	7.90283
376.097	-32.13465
376.311	24.76332
376.526	12.11781
376.741	16.33288
376.955	10.01031
377.17	-15.27784
377.384	92.22017
377.599	-25.81353
377.813	26.87099
378.028	-17.38502
378.242	7.90283
378.457	-55.31017
378.672	-51.09666
378.886	-42.66935
379.101	10.01031
379.315	60.59685
379.53	62.70491
379.744	12.11781
379.958	10.01031
380.173	10.01031
380.387	-0.52684
380.602	10.01031
380.816	33.19413
381.031	-0.52684
381.245	-48.98987
381.459	7.90283
381.674	-0.52684
381.888	24.76332
382.103	-0.52684
382.317	-65.84349
382.531	24.76332
382.746	-46.88306
382.96	1.58054
383.174	-55.31017
383.388	-4.74153
383.603	-0.52684
383.817	24.76332
384.031	-55.31017
384.246	24.76332
384.46	16.33288
384.674	66.92111
384.888	-17.38502
385.103	-44.77622
385.317	-8.95613
385.531	-13.17063
385.745	-13.17063
385.959	-4.74153
386.174	18.44046
386.388	16.33288
386.602	71.13739
386.816	3.68794
387.03	-51.09666
387.244	10.01031
387.458	-42.66935
387.672	50.05688
387.887	58.48881
388.101	-53.20343
388.315	-34.24164
388.529	-27.92059
388.743	-34.24164
388.957	-42.66935
389.171	24.76332
389.385	-74.26969
389.599	-84.80186
389.813	-0.52684
390.027	-2.6342
390.241	22.65567
390.455	-25.81353
390.669	-17.38502
390.883	-25.81353
391.097	-34.24164
391.311	14.22533
391.525	-19.49219
391.738	-30.02763
391.952	28.97868
392.166	-44.77622
392.38	12.11781
392.594	-59.52357
392.808	43.73317
393.022	45.84105
393.236	24.76332
393.449	-8.95613
393.663	-40.56246
393.877	-25.81353
394.091	-30.02763
394.305	12.11781
394.518	12.11781
394.732	45.84105
394.946	-8.95613
395.16	-30.02763
395.373	-0.52684
395.587	-6.84884
395.801	-55.31017
396.015	-6.84884
396.228	-25.81353
396.442	-13.17063
396.656	1.58054
396.869	-25.81353
397.083	7.90283
397.297	-15.27784
397.51	-6.84884
397.724	-0.52684
397.938	35.30189
398.151	-0.52684
398.365	-15.27784
398.578	-17.38502
398.792	62.70491
399.005	1.58054
399.219	-23.70644
399.433	54.2728
399.646	3.68794
399.86	-0.52684
400.073	37.40968
400.287	-38.45555
400.5	20.54805
400.714	-17.38502
400.927	-30.02763
401.141	35.30189
401.354	41.62532
401.567	3.68794
401.781	-95.33338
401.994	-2.6342
402.208	-25.81353
402.421	-36.3486
402.635	18.44046
402.848	-82.69548
403.061	-0.52684
403.275	-34.24164
403.488	-40.56246
403.701	-25.81353
403.915	16.33288
404.128	-46.88306
404.341	18.44046
404.555	7.90283
404.768	31.08639
404.981	-17.38502
405.195	66.92111
405.408	-15.27784
405.621	-42.66935
405.834	7.90283
406.048	-13.17063
406.261	-55.31017
406.474	-51.09666
406.687	39.51749
406.9	-21.59933
407.114	26.87099
407.327	-8.95613
407.54	24.76332
407.753	16.33288
407.966	-15.27784
408.179	83.78679
408.392	58.48881
408.605	14.22533
408.819	-13.17063
409.032	26.87099
409.245	-25.81353
409.458	3.68794
409.671	45.84105
409.884	12.11781
410.097	31.08639
410.31	-42.66935
410.523	-48.98987
410.736	43.73317
410.949	-32.13465
411.162	60.59685
411.375	-67.95008
411.588	14.22533
411.801	7.90283
412.014	54.2728
412.227	-67.95008
412.44	54.2728
412.653	-67.95008
412.865	-63.73688
413.078	1.58054
413.291	-38.45555
413.504	66.92111
413.717	41.62532
413.93	60.59685
414.143	35.30189
414.356	-40.56246
414.568	60.59685
414.781	-53.20343
414.994	1.58054
415.207	20.54805
415.42	-0.52684
415.632	-34.24164
415.845	-40.56246
416.058	18.44046
416.271	-34.24164
416.483	-67.95008
416.696	7.90283
416.909	54.2728
417.121	50.05688
417.334	50.05688
417.547	-4.74153
417.759	66.92111
417.972	-17.38502
418.185	12.11781
418.397	45.84105
418.61	-17.38502
418.823	43.73317
419.035	31.08639
419.248	12.11781
419.46	-34.24164
419.673	64.813
419.885	-32.13465
420.098	-0.52684
420.311	-8.95613
420.523	22.65567
420.736	33.19413
420.948	-65.84349
421.161	7.90283
421.373	50.05688
421.586	-30.02763
421.798	-4.74153
422.01	-32.13465
422.223	10.01031
422.435	-27.92059
422.648	24.76332
422.86	-8.95613
423.073	-17.38502
423.285	-15.27784
423.497	41.62532
423.71	58.48881
423.922	14.22533
424.134	37.40968
424.347	-30.02763
424.559	-74.26969
424.771	3.68794
424.984	18.44046
425.196	-30.02763
425.408	-17.38502
425.621	-46.88306
425.833	-21.59933
426.045	-34.24164
426.257	24.76332
426.47	10.01031
426.682	-25.81353
426.894	-21.59933
427.106	60.59685
427.318	-17.38502
427.531	-27.92059
427.743	18.44046
427.955	-53.20343
428.167	45.84105
428.379	-2.6342
428.591	-25.81353
428.804	-34.24164
429.016	-25.81353
429.228	-6.84884
429.44	-116.39447
429.652	20.54805
429.864	-15.27784
430.076	-4.74153
430.288	50.05688
430.5	-4.74153
430.712	-34.24164
430.924	18.44046
431.136	-27.92059
431.348	-25.81353
431.56	7.90283
431.772	56.38079
431.984	31.08639
432.196	37.40968
432.408	24.76332
432.62	-19.49219
432.832	94.32857
433.044	1.58054
433.256	-15.27784
433.468	-21.59933
433.679	7.90283
433.891	52.16483
434.103	-0.52684
434.315	16.33288
434.527	-19.49219
434.739	28.97868
434.95	-21.59933
435.162	-63.73688
435.374	14.22533
435.586	3.68794
435.798	35.30189
436.009	37.40968
436.221	43.73317
436.433	-34.24164
436.645	7.90283
436.856	-8.95613
437.068	-6.84884
437.28	26.87099
437.491	16.33288
437.703	47.94895
437.915	20.54805
438.126	52.16483
438.338	85.8951
438.55	-51.09666
438.761	43.73317
438.973	31.08639
439.184	-25.81353
439.396	-32.13465
439.608	58.48881
439.819	28.97868
440.031	-67.95008
440.242	-42.66935
440.454	-25.81353
440.665	1.58054
440.877	26.87099
441.088	-13.17063
441.3	-34.24164
441.511	66.92111
441.723	35.30189
441.934	71.13739
442.146	35.30189
442.357	7.90283
442.569	-0.52684
442.78	96.437
442.991	24.76332
443.203	24.76332
443.414	-42.66935
443.626	-17.38502
443.837	16.33288
444.048	-0.52684
444.26	47.94895
444.471	-19.49219
444.682	100.65391
444.894	12.11781
445.105	7.90283
445.316	-38.45555
445.528	58.48881
445.739	-46.88306
445.95	54.2728
446.161	-51.09666
446.373	50.05688
446.584	10.01031
446.795	16.33288
447.006	-6.84884
447.217	-19.49219
447.429	-8.95613
447.64	-0.52684
447.851	26.87099
448.062	-0.52684
448.273	43.73317
448.484	66.92111
448.695	41.62532
448.907	37.40968
449.118	16.33288
449.329	-30.02763
449.54	1.58054
449.751	18.44046
449.962	-17.38502
450.173	-25.81353
450.384	-70.05664
450.595	-34.24164
450.806	35.30189
451.017	50.05688
451.228	45.84105
451.439	41.62532
451.65	-0.52684
451.861	10.01031
452.072	-13.17063
452.283	28.97868
452.494	-57.41689
452.705	41.62532
452.915	-6.84884
453.126	-0.52684
453.337	12.11781
453.548	20.54805
453.759	12.11781
453.97	115.4138
454.181	3.68794
454.391	12.11781
454.602	-48.98987
454.813	-57.41689
455.024	24.76332
455.235	16.33288
455.445	-38.45555
455.656	14.22533
455.867	-57.41689
456.078	-13.17063
456.288	-0.52684
456.499	-0.52684
456.71	18.44046
456.921	20.54805
457.131	-21.59933
457.342	28.97868
457.553	-4.74153
457.763	-23.70644
457.974	-67.95008
458.184	-17.38502
458.395	-23.70644
458.606	-59.52357
458.816	3.68794
459.027	62.70491
459.237	47.94895
459.448	81.6785
459.659	3.68794
459.869	54.2728
460.08	-17.38502
460.29	43.73317
460.501	-15.27784
460.711	35.30189
460.922	52.16483
461.132	24.76332
461.343	1.58054
461.553	-8.95613
461.764	7.90283
461.974	26.87099
462.184	104.87091
462.395	24.76332
462.605	-38.45555
462.816	18.44046
463.026	43.73317
463.236	-21.59933
463.447	1.58054
463.657	-8.95613
463.867	37.40968
464.078	134.39237
464.288	-25.81353
464.498	83.78679
464.709	64.813
464.919	54.2728
465.129	-6.84884
465.339	69.02924
465.55	-13.17063
465.76	20.54805
465.97	35.30189
466.18	77.46199
466.391	50.05688
466.601	33.19413
466.811	106.97945
467.021	26.87099
467.231	79.57023
467.441	-59.52357
467.651	-42.66935
467.862	37.40968
468.072	-46.88306
468.282	12.11781
468.492	26.87099
468.702	77.46199
468.912	20.54805
469.122	77.46199
469.332	94.32857
469.542	66.92111
469.752	69.02924
469.962	52.16483
470.172	71.13739
470.382	28.97868
470.592	41.62532
470.802	45.84105
471.012	66.92111
471.222	75.35377
471.432	39.51749
471.642	111.19658
471.852	94.32857
472.062	58.48881
472.272	28.97868
472.482	66.92111
472.691	56.38079
472.901	115.4138
473.111	28.97868
473.321	75.35377
473.531	47.94895
473.741	60.59685
473.95	28.97868
474.16	79.57023
474.37	134.39237
474.58	113.30518
474.79	125.95723
474.999	33.19413
475.209	-25.81353
475.419	138.61006
475.628	45.84105
475.838	79.57023
476.048	117.52244
476.258	119.63111
476.467	125.95723
476.677	168.13631
476.886	168.13631
477.096	212.43327
477.306	142.82785
477.515	125.95723
477.725	193.44776
477.935	88.00344
478.144	125.95723
478.354	138.61006
478.563	138.61006
478.773	161.80891
478.982	96.437
479.192	113.30518
479.401	159.69982
479.611	195.55718
479.82	216.6525
480.03	159.69982
480.239	282.06037
480.449	201.88557
480.658	212.43327
480.868	147.04571
481.077	265.17916
481.287	189.22898
481.496	246.18925
481.705	254.62902
481.915	197.66663
482.124	218.76214
482.333	252.51905
482.543	153.37267
482.752	229.31064
482.961	212.43327
483.171	284.17061
483.38	229.31064
483.589	282.06037
483.799	246.18925
484.008	387.59405
484.217	265.17916
484.426	282.06037
484.636	222.98148
484.845	341.15383
485.054	349.59689
485.263	332.71105
485.472	396.03861
485.682	396.03861
485.891	429.81942
486.1	353.81853
486.309	415.03981
486.518	410.8172
486.727	317.93686
486.936	505.84085
487.146	400.26098
487.355	446.71136
487.564	412.9285
487.773	488.94552
487.982	482.61001
488.191	467.82768
488.4	590.33104
488.609	444.59982
488.818	482.61001
489.027	472.05113
489.236	446.71136
489.445	480.4982
489.654	463.6043
489.863	592.44357
490.072	550.19546
490.281	592.44357
490.49	603.00642
490.698	638.92247
490.907	569.20645
491.116	573.43126
491.325	624.13307
491.534	698.0859
491.743	609.34428
491.952	666.39007
492.16	531.18558
492.369	750.91783
492.578	531.18558
492.787	647.37382
492.996	708.65175
493.204	691.74653
493.413	740.35091
493.622	700.19905
493.831	852.3727
494.039	763.59846
494.248	772.05243
494.457	822.77947
494.665	820.66573
494.874	848.14499
495.083	776.27947
495.291	930.59132
495.5	793.18802
495.709	1013.04897
495.917	695.97277
496.126	939.04803
496.335	886.19561
496.543	945.39064
496.752	862.94213
496.96	936.93384
497.169	822.77947
497.377	1017.27783
497.586	839.68967
497.794	1025.73564
498.003	922.13473
498.211	1110.31863
498.42	996.13375
498.628	1042.65153
498.837	1048.99509
499.045	1059.5678
499.254	996.13375
499.462	1038.42252
499.671	1165.30175
499.879	1252.0111
500.087	1093.40136
500.296	1334.49497
500.504	1173.76094
500.713	1241.4365
500.921	1167.41654
501.129	1182.22019
501.338	1097.63065
501.546	1262.58576
501.754	1106.08928
501.962	1226.63219
502.171	1275.27544
502.379	1258.35589
502.587	1216.05777
502.795	1332.37996
503.004	1283.73527
503.212	1376.79543
503.42	1249.89617
503.628	1372.56536
503.837	1304.88501
504.045	1471.97257
504.253	1436.01668
504.461	1427.55648
504.669	1279.50535
504.877	1455.05215
505.085	1332.37996
505.294	1478.31772
505.502	1446.59194
505.71	1615.79405
505.918	1414.86618
506.126	1550.22906
506.334	1402.1759
506.542	1689.81661
506.75	1507.92838
506.958	1698.27612
507.166	1641.17355
507.374	1569.26422
507.582	1520.61862
507.79	1567.1492
507.998	1495.23811
508.206	1757.49123
508.414	1600.9892
508.622	1562.91918
508.83	1545.99901
509.037	1812.47406
509.245	1586.18425
509.453	1702.50586
509.661	1617.90902
509.869	1751.14689
510.077	1706.73558
510.285	1897.05708
510.492	1719.42468
510.7	1985.86001
510.908	1675.01235
511.116	1884.37013
511.324	1791.32715
511.531	1818.81805
511.739	1774.40932
511.947	1825.162
512.155	1897.05708
512.362	1844.1936
512.57	1909.74383
512.778	1854.76655
512.985	1871.683
513.193	1943.57418
513.401	1863.22481
513.608	2053.51199
513.816	1717.30984
514.024	1846.3082
514.231	1956.26019
514.439	1842.079
514.646	1956.26019
514.854	2066.19596
515.061	1947.80287
515.269	2047.16991
515.477	1926.65919
515.684	2059.85401
515.892	1852.65197
516.099	2055.626
516.307	1875.91207
516.514	2154.97625
516.722	2051.39797
516.929	2159.20354
517.136	2057.74001
517.344	2176.11237
517.551	2182.45305
517.759	2231.06237
517.966	2040.82777
518.173	2269.10121
518.381	2317.70204
518.588	2427.56301
518.796	2222.60891
519.003	2091.56312
519.21	2332.4926
519.418	2311.36309
519.625	2264.87482
519.832	2298.68492
520.039	2224.72229
520.247	2598.63427
520.454	2247.96888
520.661	2366.29777
520.868	2218.38212
521.076	2577.51847
521.283	2353.62113
521.49	2452.91155
521.697	2433.90029
521.904	2512.05199
522.112	2368.41051
522.319	2550.06615
522.526	2425.45056
522.733	2541.61889
522.94	2801.28171
523.147	2609.19171
523.354	2577.51847
523.561	2596.52274
523.768	2404.3255
523.975	2769.62603
524.183	2309.25008
524.39	2602.85728
524.597	2689.41816
524.804	2670.4188
525.011	2653.52962
525.218	2794.95082
525.425	2611.30317
525.632	2672.52989
525.838	2581.74173
526.045	2773.84696
526.252	2619.74885
526.459	2904.66847
526.666	2712.63818
526.873	2854.0343
527.08	2851.92436
527.287	2944.74795
527.494	2685.19617
527.701	2887.79133
527.907	2775.95741
528.114	2786.50944
528.321	2932.09184
528.528	2970.05856
528.735	2970.05856
528.941	2974.27678
529.148	2790.73016
529.355	2999.58488
529.562	2866.69361
529.768	3130.30802
529.975	2803.39198
530.182	2883.5719
530.388	2851.92436
530.595	3086.03757
530.802	2786.50944
531.008	3035.43427
531.215	3092.36234
531.422	3183.00171
531.628	3134.52389
531.835	3248.32764
532.042	3307.31787
532.248	3235.68516
532.455	3159.81773
532.661	3256.75563
532.868	3153.49449
533.074	3370.50677
533.281	3231.47086
533.487	3399.98955
533.694	3128.20006
533.9	3355.76409
534.107	3138.73969
534.313	3408.41257
534.52	3311.53094
534.726	3391.56625
534.933	3378.93077
535.139	3583.12518
535.345	3303.10472
535.552	3395.77794
535.758	3414.72965
535.965	3562.08215
536.171	3496.83702
536.377	3566.2909
536.584	3526.30474
536.79	3488.41701
536.996	3488.41701
537.203	3597.8542
537.409	3509.46648
537.615	3566.2909
537.821	3572.6039
538.028	3734.5794
538.234	3610.47834
538.44	3801.86039
538.646	3458.94471
538.853	3778.7348
539.059	3501.04691
539.265	3883.83184
539.471	3732.47655
539.677	3526.30474
539.883	3795.55365
540.09	3648.3467
540.296	3682.00231
540.502	3778.7348
540.708	3700.93145
540.914	3879.62892
541.12	3946.86613
541.326	3944.76528
541.532	3862.8164
541.738	3871.22282
541.944	3774.5299
542.15	4068.68049
542.356	3791.34905
542.562	3955.26933
542.768	3808.16695
542.974	4133.75966
543.18	4129.56161
543.386	4127.46256
543.592	4087.57651
543.798	4112.76857
544.004	3984.67796
544.21	3997.28043
544.415	3965.77287
544.621	4173.63695
544.827	4045.58308
545.033	4263.85736
545.239	4169.4397
545.445	4289.02811
545.651	3997.28043
545.856	4351.94142
546.062	4167.34105
546.268	4416.93137
546.474	4026.68334
546.679	4068.68049
546.885	4035.08343
547.091	4265.95504
547.297	3974.17533
547.502	4169.4397
547.708	4133.75966
547.914	4360.3284
548.119	4093.8748
548.325	4649.46395
548.531	4077.07893
548.736	4280.6382
548.942	4163.14367
549.147	4410.64293
549.353	4362.42509
549.559	4548.94283
549.764	4240.78146
549.97	4330.97248
550.175	4238.68353
550.381	4429.50765
550.586	4356.13495
550.792	4662.02547
550.997	4414.83524
551.203	4553.13224
551.408	4387.58366
551.614	4509.13907
551.819	4523.80454
552.025	4523.80454
552.23	4475.61392
552.435	4586.64427
552.641	4768.76563
552.846	4856.62503
553.052	4534.27922
553.257	4657.83839
553.462	4666.21246
553.668	4812.70035
553.873	4548.94283
554.078	4586.64427
554.283	4435.79549
554.489	4768.76563
554.694	4716.44936
554.899	4873.3556
555.105	4592.92715
555.31	4906.81234
555.515	4743.65558
555.72	4710.17045
555.925	4816.88408
556.131	4885.90256
556.336	4655.74481
556.541	4894.26675
556.746	4666.21246
556.951	4975.79831
557.156	4825.25128
557.361	4890.0847
557.567	4795.96449
557.772	4854.53361
557.977	4852.44216
558.182	4823.15952
558.387	4931.90104
558.592	4839.893
558.797	4741.56293
559.002	4942.35369
559.207	4802.24061
559.412	4925.62917
559.617	4814.79223
559.822	5186.78091
560.027	4988.33852
560.232	5055.20563
560.437	4940.26321
560.642	5149.19739
560.847	5178.42967
561.051	5236.88054
561.256	5034.3122
561.461	5149.19739
561.666	4858.71643
561.871	5151.28556
562.076	4917.26636
562.281	5291.13995
562.485	5013.41646
562.69	5282.79337
562.895	5109.51771
563.1	5276.5332
563.305	5065.65148
563.509	5165.90211
563.714	5159.63801
563.919	5211.8324
564.123	5199.30708
564.328	5209.74491
564.533	5094.89677
564.737	5193.0441
564.942	5174.25391
565.147	5405.86731
565.351	5289.05334
565.556	5211.8324
565.761	5174.25391
565.965	5345.38354
566.17	5180.51752
566.374	5603.86531
566.579	5193.0441
566.784	5213.91988
566.988	5207.65739
567.193	5599.69913
567.397	5293.22653
567.602	5483.00758
567.806	5351.6414
568.011	5426.71921
568.215	5424.63412
568.42	5489.26078
568.624	5307.83197
568.828	5491.34514
569.033	5380.84194
569.237	5528.8595
569.442	5316.17742
569.646	5303.65911
569.85	5286.96671
570.055	5453.82316
570.259	5286.96671
570.463	5510.10327
570.668	5241.0549
570.872	5601.78223
571.076	5220.18215
571.281	5535.11115
571.485	5485.092
571.689	5516.35556
571.893	5624.69484
572.098	5578.86677
572.302	5658.01718
572.506	5703.82553
572.71	5568.44971
572.914	5793.32706
573.119	5603.86531
573.323	5641.35677
573.527	5703.82553
573.731	5834.94081
573.935	5662.18205
574.139	5861.98468
574.343	5568.44971
574.547	5764.19182
574.751	5751.70387
574.955	5710.07124
575.159	5635.10872
575.364	5843.26242
575.568	5753.78525
575.772	5774.59779
575.976	5757.94795
576.18	5820.37707
576.383	5747.54103
576.587	5751.70387
576.791	5743.3781
576.995	5847.42309
