Data from absorb_only_2.23.25_USB4F045381__72__0177.txt Node

Date: Sun Feb 23 19:27:07 EST 2025
User: ssocol
Spectrometer: USB4F04538
Trigger mode: 4
Integration Time (sec): 2.600000E-3
Scans to average: 1
Electric dark correction enabled: true
Nonlinearity correction enabled: true
Boxcar width: 0
XAxis mode: Wavelengths
Number of Pixels in Spectrum: 3648
>>>>>Begin Spectral Data<<<<<
345.52	-69.17891
345.736	-69.17891
345.952	-69.17891
346.168	-43.89836
346.384	8.78094
346.6	12.99594
346.816	-52.32561
347.032	57.25913
347.248	6.67348
347.464	2.45862
347.68	-16.50703
347.896	2.45862
348.112	12.99594
348.328	27.74919
348.544	17.21104
348.76	-39.68458
348.975	-31.25673
349.191	23.53386
349.407	6.67348
349.623	-48.11204
349.839	-60.75247
350.055	6.67348
350.27	-14.39983
350.486	-14.39983
350.702	23.53386
350.918	-31.25673
351.133	0.35123
351.349	12.99594
351.565	23.53386
351.781	53.04315
351.996	-22.82848
352.212	-69.17891
352.428	-20.72135
352.644	-10.18537
352.859	57.25913
353.075	50.93519
353.291	-67.07234
353.506	-5.9708
353.722	42.50359
353.938	-1.75614
354.153	-10.18537
354.369	29.85689
354.584	19.31862
354.8	-39.68458
355.016	31.96461
355.231	-46.00521
355.447	-14.39983
355.662	-31.25673
355.878	-86.03057
356.093	36.18013
356.309	55.15113
356.524	-50.21884
356.74	23.53386
356.955	-1.75614
357.171	12.99594
357.386	23.53386
357.602	40.39575
357.817	-16.50703
358.033	17.21104
358.248	6.67348
358.464	-18.61421
358.679	48.82725
358.895	-20.72135
359.11	36.18013
359.325	48.82725
359.541	0.35123
359.756	-81.81781
359.972	8.78094
360.187	-35.47071
360.402	-18.61421
360.618	15.10348
360.833	6.67348
361.048	-41.79148
361.264	-5.9708
361.479	42.50359
361.694	-35.47071
361.909	-10.18537
362.125	-56.53909
362.34	19.31862
362.555	-27.04265
362.77	-14.39983
362.986	17.21104
363.201	-18.61421
363.416	-153.42041
363.631	4.56604
363.847	44.61145
364.062	107.85801
364.277	-54.43236
364.492	-16.50703
364.707	31.96461
364.922	-14.39983
365.138	21.42623
365.353	-69.17891
365.568	53.04315
365.783	34.07236
365.998	93.09867
366.213	31.96461
366.428	34.07236
366.643	78.34042
366.858	-10.18537
367.073	-5.9708
367.288	-27.04265
367.503	23.53386
367.718	-24.93558
367.933	53.04315
368.148	-18.61421
368.363	-50.21884
368.578	-1.75614
368.793	29.85689
369.008	-48.11204
369.223	48.82725
369.438	-54.43236
369.653	59.36716
369.868	31.96461
370.083	57.25913
370.298	-50.21884
370.513	-77.60495
370.728	-79.71139
370.943	44.61145
371.157	-14.39983
371.372	-14.39983
371.587	-67.07234
371.802	53.04315
372.017	2.45862
372.232	2.45862
372.446	23.53386
372.661	-86.03057
372.876	-27.04265
373.091	-5.9708
373.306	-18.61421
373.52	-22.82848
373.735	53.04315
373.95	34.07236
374.165	-31.25673
374.379	40.39575
374.594	-16.50703
374.809	23.53386
375.023	6.67348
375.238	48.82725
375.453	78.34042
375.667	23.53386
375.882	65.69137
376.097	-33.36373
376.311	-1.75614
376.526	23.53386
376.741	-41.79148
376.955	44.61145
377.17	2.45862
377.384	74.12398
377.599	23.53386
377.813	31.96461
378.028	-5.9708
378.242	50.93519
378.457	-43.89836
378.672	-14.39983
378.886	23.53386
379.101	6.67348
379.315	-24.93558
379.53	-39.68458
379.744	-48.11204
379.958	-8.0781
380.173	-22.82848
380.387	36.18013
380.602	2.45862
380.816	-39.68458
381.031	6.67348
381.245	6.67348
381.459	40.39575
381.674	-1.75614
381.888	-1.75614
382.103	31.96461
382.317	-16.50703
382.531	65.69137
382.746	-43.89836
382.96	-35.47071
383.174	12.99594
383.388	-22.82848
383.603	53.04315
383.817	15.10348
384.031	-43.89836
384.246	-22.82848
384.46	-12.29261
384.674	-14.39983
384.888	-43.89836
385.103	61.47521
385.317	12.99594
385.531	-27.04265
385.745	-24.93558
385.959	6.67348
386.174	-52.32561
386.388	74.12398
386.602	27.74919
386.816	-60.75247
387.03	15.10348
387.244	-1.75614
387.458	4.56604
387.672	12.99594
387.887	2.45862
388.101	2.45862
388.315	-18.61421
388.529	19.31862
388.743	15.10348
388.957	-52.32561
389.171	-16.50703
389.385	-37.57766
389.599	15.10348
389.813	42.50359
390.027	40.39575
390.241	-1.75614
390.455	2.45862
390.669	-22.82848
390.883	10.88843
391.097	-67.07234
391.311	-27.04265
391.525	-35.47071
391.738	-10.18537
391.952	2.45862
392.166	27.74919
392.38	15.10348
392.594	69.90763
392.808	6.67348
393.022	59.36716
393.236	2.45862
393.449	15.10348
393.663	-48.11204
393.877	21.42623
394.091	46.71934
394.305	17.21104
394.518	-43.89836
394.732	-24.93558
394.946	-90.24323
395.16	69.90763
395.373	2.45862
395.587	-35.47071
395.801	-43.89836
396.015	-14.39983
396.228	-54.43236
396.442	-22.82848
396.656	-8.0781
396.869	15.10348
397.083	-43.89836
397.297	-52.32561
397.51	-86.03057
397.724	-14.39983
397.938	25.64151
398.151	6.67348
398.365	29.85689
398.578	-14.39983
398.792	40.39575
399.005	-43.89836
399.219	23.53386
399.433	-20.72135
399.646	69.90763
399.86	-18.61421
400.073	-8.0781
400.287	-31.25673
400.5	-73.39198
400.714	-16.50703
400.927	6.67348
401.141	-24.93558
401.354	53.04315
401.567	-8.0781
401.781	-3.86348
401.994	4.56604
402.208	0.35123
402.421	-18.61421
402.635	-10.18537
402.848	0.35123
403.061	-20.72135
403.275	-50.21884
403.488	44.61145
403.701	6.67348
403.915	4.56604
404.128	-12.29261
404.341	-3.86348
404.555	6.67348
404.768	36.18013
404.981	57.25913
405.195	2.45862
405.408	36.18013
405.621	-46.00521
405.834	19.31862
406.048	-69.17891
406.261	-24.93558
406.474	-52.32561
406.687	-14.39983
406.9	57.25913
407.114	42.50359
407.327	-69.17891
407.54	6.67348
407.753	-41.79148
407.966	-22.82848
408.179	10.88843
408.392	-94.45578
408.605	-20.72135
408.819	-5.9708
409.032	10.88843
409.245	19.31862
409.458	-41.79148
409.671	-10.18537
409.884	48.82725
410.097	-10.18537
410.31	-18.61421
410.523	17.21104
410.736	31.96461
410.949	-3.86348
411.162	31.96461
411.375	25.64151
411.588	-10.18537
411.801	2.45862
412.014	-31.25673
412.227	2.45862
412.44	15.10348
412.653	-50.21884
412.865	-22.82848
413.078	-46.00521
413.291	19.31862
413.504	-35.47071
413.717	21.42623
413.93	48.82725
414.143	15.10348
414.356	42.50359
414.568	57.25913
414.781	-22.82848
414.994	95.20708
415.207	-14.39983
415.42	36.18013
415.632	-58.64579
415.845	-50.21884
416.058	-8.0781
416.271	-10.18537
416.483	29.85689
416.696	40.39575
416.909	19.31862
417.121	-20.72135
417.334	93.09867
417.547	46.71934
417.759	31.96461
417.972	59.36716
418.185	27.74919
418.397	99.42397
418.61	-1.75614
418.823	48.82725
419.035	-29.1497
419.248	72.0158
419.46	44.61145
419.673	31.96461
419.885	-33.36373
420.098	44.61145
420.311	-100.77442
420.523	34.07236
420.736	59.36716
420.948	-31.25673
421.161	-10.18537
421.373	-31.25673
421.586	-27.04265
421.798	-1.75614
422.01	-14.39983
422.223	23.53386
422.435	23.53386
422.648	10.88843
422.86	-10.18537
423.073	65.69137
423.285	42.50359
423.497	34.07236
423.71	6.67348
423.922	8.78094
424.134	-20.72135
424.347	-5.9708
424.559	15.10348
424.771	-14.39983
424.984	-54.43236
425.196	-35.47071
425.408	-60.75247
425.621	34.07236
425.833	19.31862
426.045	2.45862
426.257	12.99594
426.47	-8.0781
426.682	-27.04265
426.894	15.10348
427.106	50.93519
427.318	31.96461
427.531	-3.86348
427.743	65.69137
427.955	12.99594
428.167	40.39575
428.379	15.10348
428.591	-22.82848
428.804	12.99594
429.016	2.45862
429.228	-22.82848
429.44	-27.04265
429.652	40.39575
429.864	10.88843
430.076	57.25913
430.288	0.35123
430.5	48.82725
430.712	-50.21884
430.924	36.18013
431.136	15.10348
431.348	17.21104
431.56	-8.0781
431.772	27.74919
431.984	21.42623
432.196	23.53386
432.408	31.96461
432.62	141.59765
432.832	34.07236
433.044	-35.47071
433.256	-1.75614
433.468	76.23219
433.679	-33.36373
433.891	57.25913
434.103	40.39575
434.315	59.36716
434.527	12.99594
434.739	118.40105
434.95	25.64151
435.162	48.82725
435.374	-3.86348
435.586	48.82725
435.798	82.55695
436.009	-18.61421
436.221	95.20708
436.433	8.78094
436.645	21.42623
436.856	6.67348
437.068	-22.82848
437.28	2.45862
437.491	-71.28546
437.703	6.67348
437.915	44.61145
438.126	2.45862
438.338	-14.39983
438.55	15.10348
438.761	50.93519
438.973	-35.47071
439.184	59.36716
439.396	93.09867
439.608	-50.21884
439.819	-10.18537
440.031	65.69137
440.242	-8.0781
440.454	-31.25673
440.665	36.18013
440.877	29.85689
441.088	48.82725
441.3	40.39575
441.511	19.31862
441.723	69.90763
441.934	2.45862
442.146	-18.61421
442.357	25.64151
442.569	74.12398
442.78	6.67348
442.991	-130.25824
443.203	15.10348
443.414	2.45862
443.626	15.10348
443.837	34.07236
444.048	36.18013
444.26	-8.0781
444.471	86.77357
444.682	-5.9708
444.894	-1.75614
445.105	6.67348
445.316	84.66525
445.528	78.34042
445.739	57.25913
445.95	15.10348
446.161	10.88843
446.373	67.79949
446.584	84.66525
446.795	53.04315
447.006	-35.47071
447.217	19.31862
447.429	-10.18537
447.64	69.90763
447.851	23.53386
448.062	-35.47071
448.273	90.99028
448.484	15.10348
448.695	53.04315
448.907	12.99594
449.118	23.53386
449.329	-5.9708
449.54	-18.61421
449.751	-29.1497
449.962	50.93519
450.173	23.53386
450.384	67.79949
450.595	6.67348
450.806	0.35123
451.017	0.35123
451.228	27.74919
451.439	25.64151
451.65	-16.50703
451.861	0.35123
452.072	44.61145
452.283	10.88843
452.494	61.47521
452.705	4.56604
452.915	84.66525
453.126	-18.61421
453.337	0.35123
453.548	34.07236
453.759	-41.79148
453.97	-24.93558
454.181	80.44868
454.391	31.96461
454.602	19.31862
454.813	48.82725
455.024	86.77357
455.235	109.96657
455.445	2.45862
455.656	29.85689
455.867	17.21104
456.078	53.04315
456.288	-1.75614
456.499	42.50359
456.71	-22.82848
456.921	-22.82848
457.131	48.82725
457.342	-31.25673
457.553	57.25913
457.763	19.31862
457.974	8.78094
458.184	31.96461
458.395	40.39575
458.606	40.39575
458.816	36.18013
459.027	55.15113
459.237	-27.04265
459.448	31.96461
459.659	31.96461
459.869	31.96461
460.08	-10.18537
460.29	114.18377
460.501	29.85689
460.711	57.25913
460.922	128.94464
461.132	2.45862
461.343	8.78094
461.553	67.79949
461.764	23.53386
461.974	67.79949
462.184	95.20708
462.395	120.50972
462.605	99.42397
462.816	25.64151
463.026	84.66525
463.236	-5.9708
463.447	124.72714
463.657	67.79949
463.867	90.99028
464.078	40.39575
464.288	59.36716
464.498	63.58328
464.709	27.74919
464.919	48.82725
465.129	78.34042
465.339	40.39575
465.55	48.82725
465.76	120.50972
465.97	97.31551
466.18	97.31551
466.391	-16.50703
466.601	40.39575
466.811	101.53244
467.021	133.16222
467.231	82.55695
467.441	90.99028
467.651	99.42397
467.862	99.42397
468.072	2.45862
468.282	124.72714
468.492	84.66525
468.702	90.99028
468.912	133.16222
469.122	118.40105
469.332	160.57861
469.542	57.25913
469.752	128.94464
469.962	147.92445
470.172	103.64094
470.382	133.16222
470.592	150.03342
470.802	154.25143
471.012	158.46953
471.222	99.42397
471.432	185.88917
471.642	109.96657
471.852	103.64094
472.062	90.99028
472.272	185.88917
472.482	238.62888
472.691	133.16222
472.901	171.12431
473.111	135.27105
473.321	238.62888
473.531	141.59765
473.741	171.12431
473.95	240.73873
474.16	221.75083
474.37	215.42188
474.58	247.06838
474.79	240.73873
474.999	202.76452
475.209	259.7282
475.419	276.60902
475.628	280.82941
475.838	217.53151
476.048	310.37423
476.258	221.75083
476.467	280.82941
476.677	270.27857
476.886	221.75083
477.096	297.71172
477.306	430.69919
477.515	270.27857
477.725	217.53151
477.935	316.70572
478.144	329.36919
478.354	363.14154
478.563	352.58721
478.773	333.59049
478.982	346.25481
479.192	390.5848
479.401	312.48471
479.611	369.47435
479.82	500.38496
480.03	369.47435
480.239	464.48416
480.449	388.47368
480.658	483.48993
480.868	610.22455
481.077	513.05685
481.287	479.26632
481.496	529.9535
481.705	591.21126
481.915	599.66148
482.124	580.64877
482.333	574.31144
482.543	584.87373
482.752	707.41905
482.961	631.35163
483.171	766.59256
483.38	673.60945
483.589	836.34282
483.799	751.79841
484.008	923.01562
484.217	696.85324
484.426	836.34282
484.636	737.00477
484.845	868.05076
485.054	918.78737
485.263	961.07124
485.472	927.24391
485.682	969.52836
485.891	844.79808
486.1	876.50654
486.309	990.67163
486.518	1130.23204
486.727	935.70057
486.936	971.64266
487.146	1041.41807
487.355	1121.7732
487.564	1100.6264
487.773	1200.02006
487.982	1132.34677
488.191	1208.47949
488.4	1193.67552
488.609	1157.72378
488.818	1189.44585
489.027	1293.07638
489.236	1299.42131
489.445	1375.56166
489.654	1358.64142
489.863	1384.0218
490.072	1265.58192
490.281	1479.19899
490.49	1451.70332
490.698	1502.46452
490.907	1358.64142
491.116	1481.31404
491.325	1472.85384
491.534	1555.34036
491.743	1561.68542
491.952	1730.88001
492.16	1561.68542
492.369	1705.50191
492.578	1517.26981
492.787	1722.4207
492.996	1671.66375
493.204	1794.32299
493.413	1766.83146
493.622	1830.27237
493.831	1669.54884
494.039	2170.65229
494.248	1775.29046
494.457	2014.22534
494.665	1959.25546
494.874	2090.33002
495.083	1845.07468
495.291	1997.31199
495.5	2039.59457
495.709	2134.72004
495.917	1870.44952
496.126	1995.19779
496.335	2092.4439
496.543	2172.76588
496.752	2145.28859
496.96	2204.4687
497.169	2113.58235
497.377	2255.1892
497.586	2031.13827
497.794	2215.03589
498.003	2155.85694
498.211	2327.03423
498.42	2293.22616
498.628	2474.91422
498.837	2343.93734
499.045	2477.02641
499.254	2331.26007
499.462	2339.71162
499.671	2238.28293
499.879	2324.9213
500.087	2428.44319
500.296	2458.01627
500.504	2255.1892
500.713	2470.6898
500.921	2500.2598
501.129	2601.62558
501.338	2487.58721
501.546	2728.29321
501.754	2424.21829
501.962	2804.27126
502.171	2485.47507
502.379	2749.39997
502.587	2550.94607
502.795	2810.60197
503.004	2677.63164
503.212	2973.04647
503.42	2785.27839
503.628	2901.32828
503.837	2677.63164
504.045	2838.0336
504.253	2857.02335
504.461	3002.57249
504.669	2964.60993
504.877	2958.28236
505.085	2854.91343
505.294	3091.13254
505.502	2951.95466
505.71	3032.09554
505.918	2897.10903
506.126	3230.24168
506.334	2901.32828
506.542	3101.67357
506.75	3124.86243
506.958	3017.33439
507.166	2905.54746
507.374	3238.67024
507.582	2994.13679
507.79	3190.20239
507.998	3048.9645
508.206	3310.30213
508.414	3167.01903
508.622	3192.30987
508.83	3285.02253
509.037	3331.36659
509.245	3171.23433
509.453	3430.34618
509.661	3120.64642
509.869	3415.60701
510.077	3369.27824
510.285	3384.02014
510.492	3360.85392
510.7	3360.85392
510.908	3272.38181
511.116	3533.49573
511.324	3234.456
511.531	3445.08448
511.739	3411.39565
511.947	3381.9142
512.155	3525.07699
512.362	3476.6636
512.57	3522.97226
512.778	3617.66679
512.985	3377.70229
513.193	3605.04303
513.401	3645.01593
513.608	3607.14704
513.816	3691.29181
514.024	3642.91227
514.231	3577.68924
514.439	3752.27763
514.646	3586.10613
514.854	3790.1227
515.061	3550.33231
515.269	3863.69209
515.477	3657.63754
515.684	3748.07224
515.892	3615.56287
516.099	3764.89336
516.307	3729.14699
516.514	3825.85943
516.722	3907.82203
516.929	4077.95375
517.136	3781.71323
517.344	4134.63425
517.551	3775.40592
517.759	3985.55315
517.966	3899.41701
518.173	3991.85446
518.381	4042.25825
518.588	4014.95766
518.796	4046.45803
519.003	4214.38088
519.21	4038.05838
519.418	4128.33717
519.625	3899.41701
519.832	4126.2381
520.039	4029.65841
520.247	4365.39536
520.454	4094.74955
520.661	4239.55767
520.868	3991.85446
521.076	4344.4278
521.283	4254.24272
521.49	4547.72091
521.697	4277.3171
521.904	4377.97485
522.112	4329.74922
522.319	4589.61121
522.526	4327.65219
522.733	4442.95641
522.94	4403.13149
523.147	4478.58252
523.354	4428.28499
523.561	4631.4926
523.768	4380.07136
523.975	4514.20227
524.183	4421.99691
524.39	4671.27162
524.597	4637.77404
524.804	4771.72979
525.011	4648.24265
525.218	4685.92501
525.425	4742.43487
525.632	4880.5005
525.838	4740.34221
526.045	4790.5599
526.252	4409.42016
526.459	4771.72979
526.666	4704.76346
526.873	4865.86188
527.08	4696.39104
527.287	4807.29622
527.494	4574.95062
527.701	4809.38816
527.907	4614.74112
528.114	4962.03796
528.321	4782.19119
528.528	5041.45105
528.735	4780.09896
528.941	4997.56898
529.148	4874.22694
529.355	5045.62976
529.562	4949.49601
529.768	5235.663
529.975	4918.13751
530.182	5097.85586
530.388	4878.40933
530.595	5183.47526
530.802	4989.20934
531.008	5235.663
531.215	5152.15562
531.422	5317.04672
531.628	5173.03596
531.835	5221.0519
532.042	5135.44968
532.248	5417.16238
532.455	5202.26452
532.661	5356.6823
532.868	5281.57613
533.074	5463.03064
533.281	5490.12927
533.487	5515.13985
533.694	5241.92454
533.9	5415.07719
534.107	5423.41781
534.313	5533.89557
534.52	5531.81169
534.726	5485.96051
534.933	5473.45366
535.139	5631.81106
535.345	5475.5382
535.552	5581.81816
535.758	5731.75608
535.965	5798.35589
536.171	5604.73326
536.377	5792.11318
536.584	5575.5681
536.79	5898.21029
536.996	5862.85141
537.203	5721.34768
537.409	5660.9673
537.615	5858.69109
537.821	5883.65157
538.028	5850.37017
538.234	5683.87254
538.44	5914.8474
538.646	5806.67917
538.853	5806.67917
539.059	5875.33179
539.265	6093.60111
539.471	5815.00206
539.677	5848.28988
539.883	5777.54604
540.09	6182.9127
540.296	5948.1171
540.502	6243.12159
540.708	5931.48301
540.914	6433.99891
541.12	5970.98652
541.326	6373.85238
541.532	5981.38077
541.738	6268.02985
541.944	5975.14429
542.15	6375.92672
542.356	6218.20996
542.562	6284.63348
542.768	6214.05769
542.974	6263.87871
543.18	6307.46103
543.386	6655.75001
543.592	6402.89108
543.798	6330.28576
544.004	6375.92672
544.21	6394.59477
544.415	6182.9127
544.621	6475.46787
544.827	6307.46103
545.033	6552.16098
545.239	6512.78199
545.445	6757.21145
545.651	6581.17172
545.856	6881.37518
546.062	6550.08861
546.268	6465.1015
546.474	6554.23332
546.679	6562.52248
546.885	6508.63635
547.091	6523.14569
547.297	6238.96989
547.502	6655.75001
547.708	6485.83366
547.914	6566.66692
548.119	6603.9627
548.325	6643.32237
548.531	6263.87871
548.736	6833.78877
548.942	6699.24023
549.147	6831.71953
549.353	6844.13467
549.559	6757.21145
549.764	6438.14622
549.97	6902.06117
550.175	6647.46501
550.381	7152.18308
550.586	6794.46919
550.792	7050.93363
550.997	6868.96249
551.203	6817.23416
551.408	6862.75584
551.614	7174.90519
551.819	6808.95631
552.025	6945.49439
552.23	6947.56239
552.435	7135.65621
552.641	7044.73294
552.846	7112.92945
553.052	7102.59821
553.257	7224.47139
553.462	6947.56239
553.668	7061.26766
553.873	7100.53189
554.078	7214.14615
554.283	7040.59903
554.489	7205.88556
554.694	7172.83965
554.899	7391.66366
555.105	7265.76684
555.31	7300.86103
555.515	7245.12022
555.72	7307.05347
555.925	7257.50845
556.131	7496.85945
556.336	7195.55932
556.541	7472.11256
556.746	7323.56566
556.951	7397.85321
557.156	7412.29473
557.361	7457.67545
557.567	7373.09384
557.772	7492.73518
557.977	7288.47557
558.182	7449.42519
558.387	7470.05018
558.592	7612.304
558.797	7420.54655
559.002	7193.49401
559.207	7467.98778
559.412	7604.06019
559.617	7354.52225
559.822	7721.5025
560.027	7494.79733
560.232	7711.20329
560.437	7261.63769
560.642	7762.69408
560.847	7562.83599
561.051	7805.93622
561.256	7612.304
561.461	7500.98363
561.666	7465.92536
561.871	7740.03975
562.076	7604.06019
562.281	7886.21869
562.485	7612.304
562.69	7810.05404
562.895	7791.5232
563.1	7933.55002
563.305	7933.55002
563.509	7921.20377
563.714	7824.46575
563.919	7791.5232
564.123	7793.58226
564.328	7925.31927
564.533	7702.96355
564.737	7680.30251
564.942	7867.69477
565.147	8040.52004
565.351	8001.44123
565.556	7941.78045
565.761	8143.32414
565.965	7982.92766
566.17	7702.96355
566.374	7849.16916
566.579	7892.39296
566.784	7912.97252
566.988	7999.38425
567.193	8250.18739
567.397	7785.34587
567.602	8124.82312
567.806	7803.87728
568.011	8116.59991
568.215	7956.1829
568.42	8207.03754
568.624	8188.54207
568.828	8283.05763
569.033	8063.14127
569.237	8017.89636
569.442	8143.32414
569.646	8264.56874
569.85	8130.99031
570.055	8291.27441
570.259	8159.76814
570.463	8260.45988
570.668	8003.49819
570.872	8221.42179
571.076	8278.94913
571.281	8295.38268
571.485	8453.49189
571.689	8246.07826
571.893	8396.01091
572.098	8549.94414
572.302	8174.1556
572.506	8391.90455
572.71	8365.2113
572.914	8525.32202
573.119	8324.13837
573.323	8494.54054
573.527	8494.54054
573.731	8311.81497
573.935	8336.46107
574.139	8593.02631
574.343	8262.51432
574.547	8623.79422
574.751	8502.74935
574.955	8471.96473
575.159	8459.64968
575.364	8666.86224
575.568	8556.09924
575.772	8566.35737
575.976	8697.6201
576.18	8517.11404
576.383	8406.27648
576.587	8623.79422
