Data from absorb_only_2.23.25_USB4F045381__83__0188.txt Node

Date: Sun Feb 23 19:29:35 EST 2025
User: ssocol
Spectrometer: USB4F04538
Trigger mode: 4
Integration Time (sec): 2.600000E-3
Scans to average: 1
Electric dark correction enabled: true
Nonlinearity correction enabled: true
Boxcar width: 0
XAxis mode: Wavelengths
Number of Pixels in Spectrum: 3648
>>>>>Begin Spectral Data<<<<<
345.52	-20.37016
345.736	-20.37016
345.952	-20.37016
346.168	-11.94141
346.384	-14.04863
346.6	-11.94141
346.816	59.7185
347.032	-81.46674
347.248	2.80986
347.464	-37.2265
347.68	-1.40491
347.896	21.7775
348.112	28.10047
348.328	23.88513
348.544	30.20817
348.76	-33.01256
348.975	-1.40491
349.191	47.07066
349.407	-18.26301
349.623	-39.33343
349.839	57.61047
350.055	2.80986
350.27	47.07066
350.486	-11.94141
350.702	11.23968
350.918	21.7775
351.133	-22.47729
351.349	2.80986
351.565	4.91728
351.781	-43.54722
351.996	-73.04089
352.212	-60.40135
352.428	40.74705
352.644	-14.04863
352.859	-30.90556
353.075	-3.51226
353.291	19.66988
353.506	19.66988
353.722	11.23968
353.938	23.88513
354.153	-11.94141
354.369	-9.83416
354.584	-11.94141
354.8	-1.40491
355.016	61.82655
355.231	-5.61958
355.447	19.66988
355.662	-41.44034
355.878	82.90833
356.093	28.10047
356.309	19.66988
356.524	38.63923
356.74	-11.94141
356.955	-45.65407
357.171	-35.11954
357.386	-56.18797
357.602	47.07066
357.817	21.7775
358.033	9.13219
358.248	49.17857
358.464	-5.61958
358.679	-16.15583
358.895	28.10047
359.11	-64.61464
359.325	-51.97449
359.541	-39.33343
359.756	-5.61958
359.972	-39.33343
360.187	-5.61958
360.402	-1.40491
360.618	-66.72124
360.833	-60.40135
361.048	101.88386
361.264	-39.33343
361.479	36.53143
361.694	51.28651
361.909	-9.83416
362.125	7.02472
362.34	2.80986
362.555	-11.94141
362.77	7.02472
362.986	-64.61464
363.201	4.91728
363.416	2.80986
363.631	13.34719
363.847	9.13219
364.062	-51.97449
364.277	0.70246
364.492	-73.04089
364.707	-39.33343
364.922	28.10047
365.138	17.5623
365.353	28.10047
365.568	19.66988
365.783	-24.5844
365.998	-11.94141
366.213	-5.61958
366.428	-5.61958
366.643	23.88513
366.858	38.63923
367.073	-56.18797
367.288	-5.61958
367.503	4.91728
367.718	-1.40491
367.933	47.07066
368.148	-30.90556
368.363	53.39447
368.578	19.66988
368.793	66.04272
369.008	53.39447
369.223	-3.51226
369.438	-24.5844
369.653	-16.15583
369.868	-37.2265
370.083	19.66988
370.298	-24.5844
370.513	-45.65407
370.728	-26.69148
370.943	2.80986
371.157	95.55848
371.372	15.45473
371.587	4.91728
371.802	-3.51226
372.017	11.23968
372.232	-5.61958
372.446	19.66988
372.661	11.23968
372.876	11.23968
373.091	-96.21098
373.306	-5.61958
373.52	23.88513
373.735	2.80986
373.95	38.63923
374.165	21.7775
374.379	-22.47729
374.594	57.61047
374.809	34.42366
375.023	47.07066
375.238	-62.50801
375.453	40.74705
375.667	-20.37016
375.882	23.88513
376.097	2.80986
376.311	-68.82782
376.526	13.34719
376.741	2.80986
376.955	-16.15583
377.17	28.10047
377.384	-1.40491
377.599	15.45473
377.813	-18.26301
378.028	-5.61958
378.242	-45.65407
378.457	38.63923
378.672	-60.40135
378.886	47.07066
379.101	0.70246
379.315	23.88513
379.53	-7.72688
379.744	9.13219
379.958	-56.18797
380.173	4.91728
380.387	-60.40135
380.602	-16.15583
380.816	21.7775
381.031	-56.18797
381.245	44.96277
381.459	25.99279
381.674	-49.86771
381.888	-26.69148
382.103	38.63923
382.317	-5.61958
382.531	-3.51226
382.746	-98.3172
382.96	47.07066
383.174	-30.90556
383.388	-47.7609
383.603	-45.65407
383.817	-14.04863
384.031	2.80986
384.246	-20.37016
384.46	7.02472
384.674	-14.04863
384.888	11.23968
385.103	-11.94141
385.317	-81.46674
385.531	-77.25387
385.745	-30.90556
385.959	-39.33343
386.174	-26.69148
386.388	28.10047
386.602	28.10047
386.816	32.3159
387.03	-14.04863
387.244	-5.61958
387.458	0.70246
387.672	82.90833
387.887	-3.51226
388.101	-26.69148
388.315	17.5623
388.529	36.53143
388.743	9.13219
388.957	-14.04863
389.171	36.53143
389.385	-1.40491
389.599	19.66988
389.813	61.82655
390.027	-24.5844
390.241	-3.51226
390.455	11.23968
390.669	32.3159
390.883	-20.37016
391.097	11.23968
391.311	-64.61464
391.525	36.53143
391.738	-16.15583
391.952	-26.69148
392.166	-79.36032
392.38	28.10047
392.594	-39.33343
392.808	-1.40491
393.022	-54.08124
393.236	-5.61958
393.449	-28.79853
393.663	-73.04089
393.877	-123.58973
394.091	-22.47729
394.305	7.02472
394.518	21.7775
394.732	-30.90556
394.946	9.13219
395.16	13.34719
395.373	-54.08124
395.587	-39.33343
395.801	23.88513
396.015	-14.04863
396.228	-43.54722
396.442	7.02472
396.656	13.34719
396.869	-9.83416
397.083	40.74705
397.297	2.80986
397.51	55.50246
397.724	4.91728
397.938	-22.47729
398.151	47.07066
398.365	-1.40491
398.578	2.80986
398.792	55.50246
399.005	0.70246
399.219	-5.61958
399.433	32.3159
399.646	-77.25387
399.86	19.66988
400.073	-7.72688
400.287	-47.7609
400.5	34.42366
400.714	-35.11954
400.927	57.61047
401.141	-35.11954
401.354	-11.94141
401.567	-7.72688
401.781	32.3159
401.994	11.23968
402.208	7.02472
402.421	13.34719
402.635	-5.61958
402.848	-14.04863
403.061	36.53143
403.275	-28.79853
403.488	2.80986
403.701	-47.7609
403.915	80.80005
404.128	-9.83416
404.341	-30.90556
404.555	28.10047
404.768	-28.79853
404.981	32.3159
405.195	19.66988
405.408	36.53143
405.621	-5.61958
405.834	-22.47729
406.048	-14.04863
406.261	34.42366
406.474	-35.11954
406.687	-9.83416
406.9	40.74705
407.114	-30.90556
407.327	25.99279
407.54	78.6918
407.753	-37.2265
407.966	-20.37016
408.179	-39.33343
408.392	15.45473
408.605	40.74705
408.819	34.42366
409.032	19.66988
409.245	-14.04863
409.458	-3.51226
409.671	9.13219
409.884	38.63923
410.097	-70.93437
410.31	89.23331
410.523	-16.15583
410.736	57.61047
410.949	2.80986
411.162	-39.33343
411.375	-30.90556
411.588	34.42366
411.801	-18.26301
412.014	70.25899
412.227	-64.61464
412.44	-22.47729
412.653	47.07066
412.865	-73.04089
413.078	36.53143
413.291	-18.26301
413.504	-79.36032
413.717	47.07066
413.93	61.82655
414.143	61.82655
414.356	-39.33343
414.568	70.25899
414.781	-5.61958
414.994	9.13219
415.207	-22.47729
415.42	53.39447
415.632	19.66988
415.845	-22.47729
416.058	2.80986
416.271	-14.04863
416.483	-7.72688
416.696	44.96277
416.909	17.5623
417.121	-41.44034
417.334	116.64384
417.547	-26.69148
417.759	-5.61958
417.972	15.45473
418.185	-35.11954
418.397	-28.79853
418.61	-5.61958
418.823	59.7185
419.035	7.02472
419.248	-20.37016
419.46	-51.97449
419.673	44.96277
419.885	25.99279
420.098	-56.18797
420.311	25.99279
420.523	36.53143
420.736	13.34719
420.948	-64.61464
421.161	32.3159
421.373	-11.94141
421.586	-11.94141
421.798	-22.47729
422.01	15.45473
422.223	-64.61464
422.435	-64.61464
422.648	-14.04863
422.86	-47.7609
423.073	-14.04863
423.285	32.3159
423.497	55.50246
423.71	7.02472
423.922	11.23968
424.134	-18.26301
424.347	19.66988
424.559	-35.11954
424.771	99.77538
424.984	-22.47729
425.196	76.58356
425.408	-30.90556
425.621	44.96277
425.833	61.82655
426.045	7.02472
426.257	2.80986
426.47	32.3159
426.682	55.50246
426.894	19.66988
427.106	-5.61958
427.318	80.80005
427.531	-37.2265
427.743	11.23968
427.955	-35.11954
428.167	28.10047
428.379	-3.51226
428.591	-18.26301
428.804	36.53143
429.016	99.77538
429.228	21.7775
429.44	-26.69148
429.652	23.88513
429.864	38.63923
430.076	-26.69148
430.288	19.66988
430.5	-14.04863
430.712	21.7775
430.924	-24.5844
431.136	-43.54722
431.348	-11.94141
431.56	72.36716
431.772	4.91728
431.984	-20.37016
432.196	40.74705
432.408	13.34719
432.62	28.10047
432.832	-20.37016
433.044	-18.26301
433.256	112.42659
433.468	21.7775
433.679	42.8549
433.891	9.13219
434.103	2.80986
434.315	30.20817
434.527	23.88513
434.739	23.88513
434.95	13.34719
435.162	-30.90556
435.374	-9.83416
435.586	-14.04863
435.798	28.10047
436.009	49.17857
436.221	19.66988
436.433	34.42366
436.645	2.80986
436.856	-11.94141
437.068	38.63923
437.28	38.63923
437.491	55.50246
437.703	23.88513
437.915	66.04272
438.126	15.45473
438.338	19.66988
438.55	44.96277
438.761	66.04272
438.973	63.93463
439.184	55.50246
439.396	23.88513
439.608	63.93463
439.819	-96.21098
440.031	74.47535
440.242	32.3159
440.454	0.70246
440.665	7.02472
440.877	-30.90556
441.088	36.53143
441.3	74.47535
441.511	57.61047
441.723	-43.54722
441.934	47.07066
442.146	-14.04863
442.357	17.5623
442.569	-51.97449
442.78	30.20817
442.991	-14.04863
443.203	-5.61958
443.414	2.80986
443.626	15.45473
443.837	21.7775
444.048	36.53143
444.26	-1.40491
444.471	25.99279
444.682	2.80986
444.894	36.53143
445.105	95.55848
445.316	72.36716
445.528	30.20817
445.739	-14.04863
445.95	7.02472
446.161	-28.79853
446.373	82.90833
446.584	-33.01256
446.795	80.80005
447.006	95.55848
447.217	42.8549
447.429	0.70246
447.64	61.82655
447.851	4.91728
448.062	28.10047
448.273	23.88513
448.484	-28.79853
448.695	19.66988
448.907	34.42366
449.118	49.17857
449.329	-77.25387
449.54	59.7185
449.751	53.39447
449.962	-9.83416
450.173	122.96987
450.384	-22.47729
450.595	47.07066
450.806	47.07066
451.017	61.82655
451.228	0.70246
451.439	15.45473
451.65	-5.61958
451.861	30.20817
452.072	21.7775
452.283	28.10047
452.494	63.93463
452.705	4.91728
452.915	28.10047
453.126	17.5623
453.337	-22.47729
453.548	34.42366
453.759	72.36716
453.97	61.82655
454.181	-35.11954
454.391	47.07066
454.602	21.7775
454.813	59.7185
455.024	-20.37016
455.235	-5.61958
455.445	-20.37016
455.656	13.34719
455.867	19.66988
456.078	63.93463
456.288	57.61047
456.499	61.82655
456.71	55.50246
456.921	103.99236
457.131	87.12496
457.342	13.34719
457.553	30.20817
457.763	91.34168
457.974	95.55848
458.184	17.5623
458.395	-5.61958
458.606	-30.90556
458.816	21.7775
459.027	49.17857
459.237	80.80005
459.448	95.55848
459.659	49.17857
459.869	-5.61958
460.08	-39.33343
460.29	70.25899
460.501	82.90833
460.711	-3.51226
460.922	21.7775
461.132	72.36716
461.343	19.66988
461.553	53.39447
461.764	63.93463
461.974	53.39447
462.184	49.17857
462.395	32.3159
462.605	28.10047
462.816	-16.15583
463.026	-9.83416
463.236	78.6918
463.447	87.12496
463.657	53.39447
463.867	-64.61464
464.078	36.53143
464.288	78.6918
464.498	61.82655
464.709	2.80986
464.919	61.82655
465.129	38.63923
465.339	80.80005
465.55	44.96277
465.76	-22.47729
465.97	70.25899
466.18	-11.94141
466.391	97.66692
466.601	95.55848
466.811	78.6918
467.021	95.55848
467.231	-16.15583
467.441	70.25899
467.651	82.90833
467.862	47.07066
468.072	-7.72688
468.282	87.12496
468.492	68.15085
468.702	103.99236
468.912	99.77538
469.122	87.12496
469.332	68.15085
469.542	87.12496
469.752	87.12496
469.962	53.39447
470.172	70.25899
470.382	87.12496
470.592	30.20817
470.802	70.25899
471.012	87.12496
471.222	36.53143
471.432	137.73137
471.642	120.86117
471.852	55.50246
472.062	156.71198
472.272	158.82104
472.482	-1.40491
472.691	101.88386
472.901	160.93012
473.111	122.96987
473.321	129.2961
473.531	131.40488
473.741	99.77538
473.95	103.99236
474.16	110.318
474.37	179.9128
474.58	87.12496
474.79	133.51369
474.999	131.40488
475.209	49.17857
475.419	122.96987
475.628	207.33515
475.838	122.96987
476.048	194.67826
476.258	190.45945
476.467	217.88312
476.677	163.03922
476.886	222.10244
477.096	213.66387
477.306	207.33515
477.515	108.20943
477.725	272.74039
477.935	209.44471
478.144	234.76089
478.354	289.62213
478.563	173.58505
478.773	150.38492
478.982	314.94696
479.192	298.06345
479.401	264.29997
479.611	314.94696
479.82	300.17382
480.03	306.50506
480.239	374.04814
480.449	291.73244
480.658	304.39463
480.868	317.05747
481.077	323.38914
481.287	338.16365
481.496	357.1607
481.705	397.27012
481.915	464.83611
482.124	348.71739
482.333	393.0478
482.543	361.38246
482.752	409.9375
482.961	390.93666
483.171	496.5131
483.38	492.28931
483.589	530.30552
483.799	479.61829
484.008	572.55109
484.217	483.8419
484.426	551.42762
484.636	572.55109
484.845	528.19339
485.054	479.61829
485.263	616.91466
485.472	534.52983
485.682	737.357
485.891	610.57666
486.1	623.25277
486.309	659.17083
486.518	724.67713
486.727	678.18766
486.936	815.55758
487.146	669.73562
487.355	690.86607
487.564	633.81654
487.773	747.92384
487.982	813.44387
488.191	840.92273
488.4	724.67713
488.609	851.49193
488.818	728.90371
489.027	999.48152
489.236	866.28916
489.445	982.56663
489.654	821.89874
489.863	832.46754
490.072	1024.85461
490.281	1077.71793
490.49	991.02402
490.698	967.76645
490.907	1003.71031
491.116	1084.06175
491.325	1041.77049
491.534	1210.94683
491.743	1003.71031
491.952	1198.25768
492.16	1096.74954
492.369	1168.65017
492.578	1194.028
492.787	1155.96146
492.996	1174.99458
493.204	1306.11875
493.413	1320.9237
493.622	1320.9237
493.831	1217.29145
494.039	1479.5515
494.248	1325.1537
494.457	1371.68409
494.665	1371.68409
494.874	1507.04711
495.083	1534.54261
495.291	1526.08247
495.5	1435.13541
495.709	1418.21501
495.917	1392.83446
496.126	1566.26795
496.335	1507.04711
496.543	1540.8877
496.752	1619.14275
496.96	1526.08247
497.169	1483.7816
497.377	1832.73944
497.586	1460.51604
497.794	1606.4529
498.003	1602.22294
498.211	1739.69174
498.42	1716.42865
498.628	1775.64292
498.837	1697.39492
499.045	1824.2809
499.254	1845.42712
499.462	1972.29357
499.671	1750.26573
499.879	1828.51018
500.087	1849.6563
500.296	1756.61008
500.504	1754.4953
500.713	1925.77819
500.921	1921.54938
501.129	1991.32175
501.338	1845.42712
501.546	2196.36705
501.754	2073.77098
501.962	1984.97908
502.171	1862.34375
502.379	2158.32286
502.587	2010.3494
502.795	2171.00455
503.004	2042.06097
503.212	2158.32286
503.42	2137.18605
503.628	2200.59402
503.837	2143.52718
504.045	2141.41348
504.253	2209.04784
504.461	2382.31912
504.669	2225.95509
504.877	2380.20645
505.085	2302.03058
505.294	2496.38767
505.502	2130.84485
505.71	2202.70749
505.918	2384.43178
506.126	2449.91909
506.334	2225.95509
506.542	2517.50796
506.75	2302.03058
506.958	2449.91909
507.166	2342.17663
507.374	2553.40981
507.582	2519.61992
507.79	2593.5314
507.998	2371.75566
508.206	2549.18624
508.414	2477.37844
508.622	2703.31517
508.83	2468.92961
509.037	2709.64781
509.245	2504.83592
509.453	2608.31194
509.661	2688.53858
509.869	2696.98243
510.077	2646.31629
510.285	2734.97716
510.492	2734.97716
510.7	2791.96119
510.908	2504.83592
511.116	2690.64956
511.324	2538.6271
511.531	2798.29214
511.739	2739.19853
511.947	2715.98032
512.155	2895.351
512.362	2884.80257
512.57	2758.19406
512.778	2916.44676
512.985	2943.86907
513.193	2867.92435
513.401	2939.65041
513.608	2994.48828
513.816	2914.33725
514.024	2990.27035
514.231	2908.00863
514.439	3007.14173
514.646	3028.2296
514.854	3201.09086
515.061	3061.96698
515.269	2986.05235
515.477	3009.25059
515.684	3142.07715
515.892	3005.03286
516.099	3260.09163
516.307	3091.48391
516.514	3289.58708
516.722	2960.7431
516.929	3243.2356
517.136	3112.56554
517.344	3350.67415
517.551	3171.5856
517.759	3382.26519
517.966	3163.15494
518.173	3413.85229
518.381	3215.84227
518.588	3207.41299
518.796	3264.30547
519.003	3209.52034
519.21	3072.50909
519.418	3455.96219
519.625	3247.44971
519.832	3521.21831
520.039	3196.87602
520.247	3437.01362
520.454	3369.62925
520.661	3664.29867
520.868	3493.85496
521.076	3685.33255
521.283	3401.21793
521.49	3628.5367
521.697	3592.76929
521.904	3639.05549
522.112	3569.62278
522.319	3908.17223
522.526	3521.21831
522.733	3811.49535
522.94	3535.95114
523.147	3693.74557
523.354	3502.27478
523.561	3975.40066
523.768	3510.69431
523.975	4051.0077
524.183	3664.29867
524.39	4021.60812
524.597	3792.5754
524.804	3975.40066
525.011	3693.74557
525.218	4080.40322
525.425	3931.28434
525.632	4076.20411
525.838	3878.7533
526.045	3950.19243
526.252	3903.96977
526.459	4197.94438
526.666	3918.67804
526.873	4229.41739
527.08	3962.79691
527.287	4218.92691
527.494	3937.58722
527.701	4164.36791
527.907	3822.00574
528.114	4252.49455
528.321	4013.20751
528.528	4174.86114
528.735	4319.61339
528.941	4223.12317
529.148	4059.40683
529.355	4416.05798
529.562	4118.19147
529.768	4441.20986
529.975	4088.80119
530.182	4269.27632
530.388	4172.76253
530.595	4292.34902
530.802	4231.51542
531.008	4428.63432
531.215	4453.78462
531.422	4617.18413
531.628	4462.16735
531.835	4581.58293
532.042	4399.28832
532.248	4579.48854
532.455	4432.82625
532.661	4652.77887
532.868	4392.99933
533.074	4719.76314
533.281	4682.08732
533.487	4600.43143
533.694	4631.84157
533.9	4922.66739
534.107	4470.54973
534.313	4826.47147
534.52	4715.5773
534.726	4602.52559
534.933	4659.05963
535.139	4801.36894
535.345	4661.15317
535.552	4742.78365
535.758	4979.10761
535.965	5221.3998
536.171	4813.92061
536.377	4878.75786
536.584	4654.87248
536.79	5008.36631
536.996	4839.02151
537.203	4983.2877
537.409	4912.21366
537.615	4859.93641
537.821	4847.38774
538.028	5144.15088
538.234	4868.30173
538.44	5022.99396
538.646	5089.8488
538.853	5077.31532
539.059	4908.032
539.265	4995.82742
539.471	4960.29607
539.677	5160.85605
539.883	5175.47185
540.09	5179.64758
540.296	5281.92392
540.502	5302.78975
540.708	5175.47185
540.914	5400.82775
541.12	5139.97435
541.326	5331.99797
541.532	5379.97294
541.738	5315.30812
541.944	5379.97294
542.15	5513.40312
542.356	5284.01061
542.562	5705.03999
542.768	5369.54466
542.974	5605.08043
543.18	5346.60036
543.386	5719.61289
543.592	5413.33951
543.798	5569.66506
544.004	5480.0546
544.21	5627.99263
544.415	5494.64532
544.621	5569.66506
544.827	5663.39678
545.033	5940.14679
545.239	5496.72961
545.445	5900.63663
545.651	5415.42472
545.856	5763.32463
546.062	5730.02139
546.268	5798.7027
546.474	5746.67376
546.679	5692.54802
546.885	5723.77636
547.091	5609.2465
547.297	5650.90198
547.502	5538.41054
547.708	5648.81943
547.914	5727.93973
548.119	5911.03486
548.325	5782.05504
548.531	5688.38384
548.736	5898.55691
548.942	5644.65426
549.147	5836.1544
549.353	5890.2378
549.559	5921.43251
549.764	5829.91298
549.97	5927.67081
550.175	5765.40588
550.381	6093.94737
550.586	5938.06752
550.792	6085.63712
550.997	6193.64102
551.203	6029.53309
551.408	5994.19953
551.614	6309.88197
551.819	6143.80096
552.025	6131.33883
552.23	6033.68953
552.435	6496.54436
552.641	6220.63207
552.846	6372.12374
553.052	6226.86022
553.257	6293.28062
553.462	6498.61733
553.668	6384.56957
553.873	6145.8779
554.078	6361.75157
554.283	6222.70814
554.489	6508.98182
554.694	6492.39836
554.899	6461.30035
555.105	6251.77068
555.31	6378.34676
555.515	6293.28062
555.72	6666.45093
555.925	6264.22464
556.131	6567.01228
556.336	6531.78167
556.541	6676.80607
556.746	6409.45872
556.951	6641.59624
557.156	6517.273
557.361	6656.09521
557.567	6579.44502
557.772	6361.75157
557.977	6384.56957
558.182	6645.73892
558.387	6614.66659
558.592	6629.16766
558.797	6651.95276
559.002	6821.71785
559.207	6616.73824
559.412	6931.36245
559.617	6550.434
559.822	6823.7872
560.027	6660.23757
560.232	6889.99462
560.437	6774.11634
560.642	6827.92585
560.847	6728.57315
561.051	6935.49874
561.256	6732.7139
561.461	7090.54439
561.666	6836.20287
561.871	6765.83658
562.076	6861.03174
562.281	6912.74805
562.485	6821.71785
562.69	6889.99462
562.895	6896.20037
563.1	7204.16456
563.305	6753.41626
563.509	6832.0644
563.714	6881.71996
563.919	7200.0341
564.123	6894.13181
564.328	6970.65351
564.533	7030.60839
564.737	7001.66702
564.942	6885.85734
565.147	7185.57677
565.351	7191.7729
565.556	7228.94549
565.761	6956.17881
565.965	7231.01043
566.17	6968.58577
566.374	6881.71996
566.579	7140.13238
566.784	7175.24944
566.988	7092.61081
567.193	7212.42522
567.397	7129.80261
567.602	7340.42041
567.806	7063.67886
568.011	7328.03747
568.215	7402.32332
568.42	7480.70558
568.624	7228.94549
568.828	7361.0569
569.033	7228.94549
569.237	7427.079
569.442	7119.47228
569.646	7451.83155
569.85	7255.78791
570.055	7365.18393
570.259	7272.30447
570.463	7334.22904
570.668	7311.52566
570.872	7379.62787
571.076	7402.32332
571.281	7392.00753
571.485	7408.51253
571.689	7447.70634
571.893	7511.63736
572.098	7542.56429
572.302	7321.84571
572.506	7369.31088
572.71	7402.32332
572.914	7641.49811
573.119	7431.20464
573.323	7546.68752
573.527	7462.14419
573.731	7569.36373
573.935	7592.03735
574.139	7826.8676
574.343	7499.26523
574.547	7800.1025
574.751	7649.74038
574.955	7686.8264
575.159	7592.03735
575.364	7703.30688
575.568	7608.52563
575.772	7878.32908
575.976	7707.42679
576.18	7711.54661
576.383	7657.98231
576.587	7668.28425
576.791	7800.1025
576.995	7773.33387
577.199	7686.8264
577.403	7612.64749
