Data from mixed_try1_USB4F045381__37__00102.txt Node

Date: Thu Apr 03 19:57:39 EDT 2025
User: mmckonesweet
Spectrometer: USB4F04538
Trigger mode: 4
Integration Time (sec): 2.700000E-3
Scans to average: 1
Electric dark correction enabled: true
Nonlinearity correction enabled: true
Boxcar width: 0
XAxis mode: Wavelengths
Number of Pixels in Spectrum: 3648
>>>>>Begin Spectral Data<<<<<
345.52	-60.05024
345.736	-60.05024
345.952	-60.05024
346.168	-13.69743
346.384	-49.51657
346.6	70.61035
346.816	13.69845
347.032	-51.62336
347.248	3.16109
347.464	20.02115
347.68	-22.12611
347.896	-45.30293
348.112	-5.26836
348.328	-5.26836
348.544	13.69845
348.76	-11.5902
348.975	20.02115
349.191	11.59093
349.407	7.37596
349.623	32.66719
349.839	53.7458
350.055	9.48343
350.27	7.37596
350.486	-13.69743
350.702	13.69845
350.918	-11.5902
351.133	-24.23321
351.349	-5.26836
351.565	-95.85994
351.781	-9.48295
351.996	64.28597
352.212	-62.1569
352.428	11.59093
352.644	38.99053
352.859	38.99053
353.075	57.9618
353.291	-62.1569
353.506	-13.69743
353.722	57.9618
353.938	-26.3403
354.153	43.20621
354.369	-22.12611
354.584	-30.55439
354.8	-26.3403
355.016	49.5299
355.231	-97.96616
355.447	-53.73012
355.662	-7.37567
355.878	20.02115
356.093	-34.76838
356.309	28.45175
356.524	30.55946
356.74	20.02115
356.955	36.88273
357.171	57.9618
357.386	5.26851
357.602	20.02115
357.817	22.12877
358.033	22.12877
358.248	-22.12611
358.464	-1.05368
358.679	20.02115
358.895	20.02115
359.11	36.88273
359.325	5.26851
359.541	13.69845
359.756	64.28597
359.972	-22.12611
360.187	-32.6614
360.402	30.55946
360.618	20.02115
360.833	83.25972
361.048	53.7458
361.264	-7.37567
361.479	24.2364
361.694	7.37596
361.909	36.88273
362.125	57.9618
362.34	3.16109
362.555	95.90989
362.77	22.12877
362.986	-43.19607
363.201	49.5299
363.416	-47.40976
363.631	121.21262
363.847	-28.44736
364.062	5.26851
364.277	24.2364
364.492	-30.55439
364.707	-64.26353
364.922	-11.5902
365.138	20.02115
365.353	45.31408
365.568	-28.44736
365.783	26.34407
365.998	-15.80464
366.213	1.05369
366.428	-47.40976
366.643	-13.69743
366.858	-1.05368
367.073	38.99053
367.288	36.88273
367.503	-13.69743
367.718	-30.55439
367.933	5.26851
368.148	28.45175
368.363	-22.12611
368.578	-3.16104
368.793	45.31408
369.008	79.04317
369.223	22.12877
369.438	49.5299
369.653	70.61035
369.868	70.61035
370.083	11.59093
370.298	20.02115
370.513	-81.11567
370.728	36.88273
370.943	53.7458
371.157	28.45175
371.372	45.31408
371.587	22.12877
371.802	7.37596
372.017	-7.37567
372.232	20.02115
372.446	47.42198
372.661	-13.69743
372.876	15.80599
373.091	62.17789
373.306	22.12877
373.52	17.91356
373.735	1.05369
373.95	15.80599
374.165	28.45175
374.379	43.20621
374.594	26.34407
374.809	53.7458
375.023	36.88273
375.238	28.45175
375.453	5.26851
375.667	22.12877
375.882	-43.19607
376.097	-20.01897
376.311	36.88273
376.526	-3.16104
376.741	45.31408
376.955	-51.62336
377.17	55.85379
377.384	123.32132
377.599	13.69845
377.813	11.59093
378.028	53.7458
378.242	15.80599
378.457	22.12877
378.672	11.59093
378.886	-20.01897
379.101	9.48343
379.315	-5.26836
379.53	11.59093
379.744	-41.08919
379.958	62.17789
380.173	-7.37567
380.387	11.59093
380.602	51.63784
380.816	-5.26836
381.031	3.16109
381.245	17.91356
381.459	-106.39078
381.674	49.5299
381.888	98.01833
382.103	11.59093
382.317	7.37596
382.531	7.37596
382.746	11.59093
382.96	3.16109
383.174	45.31408
383.388	53.7458
383.603	-47.40976
383.817	-3.16104
384.031	-38.98228
384.246	-22.12611
384.46	-13.69743
384.674	-43.19607
384.888	28.45175
385.103	-57.94356
385.317	-5.26836
385.531	-13.69743
385.745	-3.16104
385.959	76.93493
386.174	15.80599
386.388	119.10394
386.602	32.66719
386.816	-5.26836
387.03	-38.98228
387.244	36.88273
387.458	-36.87534
387.672	30.55946
387.887	41.09836
388.101	-11.5902
388.315	5.26851
388.529	3.16109
388.743	26.34407
388.957	13.69845
389.171	-28.44736
389.385	-9.48295
389.599	28.45175
389.813	-3.16104
390.027	-17.91182
390.241	36.88273
390.455	-5.26836
390.669	13.69845
390.883	20.02115
391.097	-7.37567
391.311	-43.19607
391.525	-51.62336
391.738	45.31408
391.952	28.45175
392.166	47.42198
392.38	28.45175
392.594	49.5299
392.808	36.88273
393.022	-13.69743
393.236	11.59093
393.449	74.82672
393.663	89.5847
393.877	15.80599
394.091	-11.5902
394.305	-28.44736
394.518	49.5299
394.732	95.90989
394.946	3.16109
395.16	70.61035
395.373	45.31408
395.587	72.71852
395.801	30.55946
396.015	41.09836
396.228	62.17789
396.442	15.80599
396.656	55.85379
396.869	20.02115
397.083	70.61035
397.297	7.37596
397.51	-11.5902
397.724	7.37596
397.938	11.59093
398.151	53.7458
398.365	57.9618
398.578	11.59093
398.792	108.56086
399.005	32.66719
399.219	-26.3403
399.433	70.61035
399.646	38.99053
399.86	-3.16104
400.073	22.12877
400.287	-47.40976
400.5	60.06984
400.714	3.16109
400.927	32.66719
401.141	76.93493
401.354	-11.5902
401.567	-34.76838
401.781	47.42198
401.994	36.88273
402.208	9.48343
402.421	-26.3403
402.635	79.04317
402.848	15.80599
403.061	-5.26836
403.275	-28.44736
403.488	-9.48295
403.701	-22.12611
403.915	3.16109
404.128	49.5299
404.341	-13.69743
404.555	11.59093
404.768	87.47635
404.981	70.61035
405.195	28.45175
405.408	-9.48295
405.621	47.42198
405.834	-17.91182
406.048	-47.40976
406.261	-38.98228
406.474	5.26851
406.687	28.45175
406.9	15.80599
407.114	3.16109
407.327	13.69845
407.54	34.77495
407.753	-22.12611
407.966	62.17789
408.179	24.2364
408.392	7.37596
408.605	-17.91182
408.819	20.02115
409.032	79.04317
409.245	-26.3403
409.458	3.16109
409.671	22.12877
409.884	20.02115
410.097	13.69845
410.31	28.45175
410.523	38.99053
410.736	28.45175
410.949	3.16109
411.162	43.20621
411.375	-13.69743
411.588	32.66719
411.801	53.7458
412.014	20.02115
412.227	104.34378
412.44	15.80599
412.653	-13.69743
412.865	-30.55439
413.078	45.31408
413.291	30.55946
413.504	70.61035
413.717	38.99053
413.93	13.69845
414.143	3.16109
414.356	-72.68981
414.568	36.88273
414.781	45.31408
414.994	83.25972
415.207	5.26851
415.42	62.17789
415.632	-47.40976
415.845	81.15143
416.058	3.16109
416.271	32.66719
416.483	36.88273
416.696	57.9618
416.909	76.93493
417.121	5.26851
417.334	53.7458
417.547	-34.76838
417.759	36.88273
417.972	11.59093
418.185	-17.91182
418.397	70.61035
418.61	22.12877
418.823	55.85379
419.035	-20.01897
419.248	45.31408
419.46	55.85379
419.673	95.90989
419.885	20.02115
420.098	64.28597
420.311	-9.48295
420.523	-15.80464
420.736	-1.05368
420.948	91.69308
421.161	11.59093
421.373	45.31408
421.586	95.90989
421.798	-3.16104
422.01	-5.26836
422.223	41.09836
422.435	-45.30293
422.648	83.25972
422.86	32.66719
423.073	11.59093
423.285	57.9618
423.497	20.02115
423.71	100.12679
423.922	112.77803
424.134	-11.5902
424.347	43.20621
424.559	70.61035
424.771	53.7458
424.984	41.09836
425.196	53.7458
425.408	32.66719
425.621	51.63784
425.833	74.82672
426.045	-3.16104
426.257	57.9618
426.47	-5.26836
426.682	83.25972
426.894	-7.37567
427.106	-22.12611
427.318	74.82672
427.531	11.59093
427.743	7.37596
427.955	28.45175
428.167	36.88273
428.379	53.7458
428.591	26.34407
428.804	1.05369
429.016	49.5299
429.228	30.55946
429.44	28.45175
429.652	81.15143
429.864	38.99053
430.076	5.26851
430.288	28.45175
430.5	49.5299
430.712	53.7458
430.924	36.88273
431.136	-26.3403
431.348	9.48343
431.56	62.17789
431.772	-22.12611
431.984	22.12877
432.196	129.64756
432.408	11.59093
432.62	57.9618
432.832	87.47635
433.044	62.17789
433.256	28.45175
433.468	87.47635
433.679	5.26851
433.891	38.99053
434.103	-22.12611
434.315	-22.12611
434.527	7.37596
434.739	79.04317
434.95	20.02115
435.162	55.85379
435.374	89.5847
435.586	3.16109
435.798	30.55946
436.009	3.16109
436.221	20.02115
436.433	70.61035
436.645	-38.98228
436.856	79.04317
437.068	53.7458
437.28	70.61035
437.491	-5.26836
437.703	70.61035
437.915	51.63784
438.126	32.66719
438.338	20.02115
438.55	121.21262
438.761	108.56086
438.973	32.66719
439.184	47.42198
439.396	98.01833
439.608	38.99053
439.819	51.63784
440.031	3.16109
440.242	20.02115
440.454	20.02115
440.665	3.16109
440.877	100.12679
441.088	11.59093
441.3	32.66719
441.511	79.04317
441.723	-41.08919
441.934	45.31408
442.146	13.69845
442.357	70.61035
442.569	22.12877
442.78	28.45175
442.991	-43.19607
443.203	74.82672
443.414	47.42198
443.626	91.69308
443.837	70.61035
444.048	-45.30293
444.26	-20.01897
444.471	20.02115
444.682	53.7458
444.894	20.02115
445.105	62.17789
445.316	30.55946
445.528	47.42198
445.739	5.26851
445.95	20.02115
446.161	-22.12611
446.373	55.85379
446.584	57.9618
446.795	34.77495
447.006	57.9618
447.217	36.88273
447.429	43.20621
447.64	57.9618
447.851	72.71852
448.062	22.12877
448.273	-74.79631
448.484	121.21262
448.695	28.45175
448.907	81.15143
449.118	129.64756
449.329	70.61035
449.54	49.5299
449.751	24.2364
449.962	129.64756
450.173	93.80147
450.384	41.09836
450.595	47.42198
450.806	36.88273
451.017	34.77495
451.228	112.77803
451.439	-62.1569
451.65	55.85379
451.861	-28.44736
452.072	64.28597
452.283	142.30062
452.494	-17.91182
452.705	64.28597
452.915	38.99053
453.126	3.16109
453.337	79.04317
453.548	53.7458
453.759	51.63784
453.97	-13.69743
454.181	47.42198
454.391	36.88273
454.602	95.90989
454.813	98.01833
455.024	49.5299
455.235	114.88664
455.445	106.45231
455.656	95.90989
455.867	-20.01897
456.078	64.28597
456.288	32.66719
456.499	60.06984
456.71	36.88273
456.921	66.39408
457.131	3.16109
457.342	57.9618
457.553	47.42198
457.763	146.51847
457.974	51.63784
458.184	104.34378
458.395	45.31408
458.606	64.28597
458.816	53.7458
459.027	47.42198
459.237	13.69845
459.448	22.12877
459.659	72.71852
459.869	49.5299
460.08	76.93493
460.29	106.45231
460.501	89.5847
460.711	127.53879
460.922	64.28597
461.132	64.28597
461.343	98.01833
461.553	87.47635
461.764	57.9618
461.974	112.77803
462.184	100.12679
462.395	114.88664
462.605	76.93493
462.816	47.42198
463.026	100.12679
463.236	119.10394
463.447	165.49987
463.657	72.71852
463.867	119.10394
464.078	83.25972
464.288	79.04317
464.498	66.39408
464.709	28.45175
464.919	129.64756
465.129	70.61035
465.339	180.26435
465.55	38.99053
465.76	74.82672
465.97	87.47635
466.18	119.10394
466.391	127.53879
466.601	140.19172
466.811	95.90989
467.021	89.5847
467.231	138.08285
467.441	121.21262
467.651	108.56086
467.862	98.01833
468.072	163.39074
468.282	148.62743
468.492	114.88664
468.702	104.34378
468.912	146.51847
469.122	116.99528
469.332	201.3582
469.542	165.49987
469.752	154.95444
469.962	140.19172
470.172	188.70164
470.382	173.93659
470.592	188.70164
470.802	192.92041
471.012	144.40954
471.222	186.59229
471.432	184.48295
471.642	116.99528
471.852	146.51847
472.062	277.31241
472.272	207.68674
472.482	214.01547
472.691	239.33216
472.901	273.09208
473.111	239.33216
473.321	197.13926
473.531	283.64305
473.741	233.00273
473.95	285.7533
474.16	233.00273
474.37	264.65165
474.58	325.8515
474.79	338.51543
474.999	359.62338
475.209	374.39997
475.419	315.29871
475.628	365.95611
475.838	298.41518
476.048	296.30482
476.258	342.73688
476.467	431.403
476.677	370.17801
476.886	389.17739
477.096	463.07638
477.306	420.84599
477.515	399.73318
477.725	477.85847
477.935	450.40661
478.144	547.55513
478.354	484.19387
478.563	591.91544
478.773	458.85306
478.982	517.98495
479.192	532.7697
479.401	594.02798
479.611	524.32118
479.82	653.18424
480.03	581.35293
480.239	644.73275
480.449	589.80291
480.658	676.4268
480.868	712.34986
481.077	773.63756
481.287	737.70922
481.496	796.88685
481.705	822.25103
481.915	813.79616
482.124	733.48255
482.333	923.72034
482.543	767.29705
482.752	900.46529
482.961	824.36477
483.171	1016.74922
483.38	788.43243
483.589	1008.29152
483.799	993.49078
484.008	1008.29152
484.217	987.14771
484.426	1209.18444
484.636	1120.3634
484.845	1319.1612
485.054	1173.23224
485.263	1291.6664
485.472	1120.3634
485.682	1317.0462
485.891	1177.46186
486.1	1384.72681
486.309	1329.7362
486.518	1482.01906
486.727	1355.11638
486.936	1422.79762
487.146	1342.42626
487.355	1482.01906
487.564	1397.41706
487.773	1482.01906
487.982	1575.08049
488.191	1630.07006
488.4	1704.09201
488.609	1704.09201
488.818	1676.59853
489.027	1784.45431
489.236	1575.08049
489.445	1879.61248
489.654	1697.7474
489.863	1966.30312
490.072	1847.89414
490.281	1873.2689
490.49	1811.94539
490.698	1998.01672
490.907	1873.2689
491.116	2074.12331
491.325	1917.67295
491.534	2253.78036
491.743	1921.90178
491.952	2120.62833
492.16	2101.60399
492.369	2124.85588
492.578	2116.40076
492.787	2190.37879
492.996	2277.0256
493.204	2323.51267
493.413	2312.94783
493.622	2401.68479
493.831	2329.85146
494.039	2486.17912
494.248	2549.53821
494.457	2393.23442
494.665	2384.78389
494.874	2505.18792
495.083	2606.55238
495.291	2587.54863
495.5	2507.29996
495.709	2842.95698
495.917	2503.07588
496.126	2728.99679
496.335	2659.33537
496.543	2887.2639
496.752	2817.63594
496.96	2963.20381
497.169	2737.43963
497.377	2883.04447
497.586	3026.47233
497.794	2967.42214
498.003	2674.1132
498.211	2977.96768
498.42	2910.46977
498.628	3125.56509
498.837	3015.92853
499.045	3037.01575
499.254	3045.45021
499.462	3093.94352
499.671	3205.65686
499.879	3226.7297
500.087	3199.33468
500.296	3391.03978
500.504	3199.33468
500.713	3264.65662
500.921	3329.96234
501.129	3412.09755
501.338	3369.98026
501.546	3603.64035
501.754	3281.51128
501.962	3593.11997
502.171	3635.19866
502.379	3677.26979
502.587	3563.66044
502.795	3508.94027
503.004	3483.68063
503.212	3700.40566
503.42	3437.36453
503.628	3780.31162
503.837	3588.91169
504.045	3816.04991
504.253	3778.20919
504.461	3845.47716
504.669	3801.33483
504.877	3805.53924
505.085	3645.71715
505.294	4017.75788
505.502	3837.06977
505.71	3975.75076
505.918	3927.43249
506.126	3973.65019
506.334	3675.16641
506.542	4223.47285
506.75	3763.49165
506.958	4338.83608
507.166	4074.45445
507.374	4273.82115
507.582	4145.82859
507.79	4053.45748
507.998	4076.55404
508.206	4233.96309
508.414	4093.34995
508.622	4269.62593
508.83	4206.68736
509.037	4200.39245
509.245	4156.32275
509.453	4363.99759
509.661	4275.91873
509.869	4246.55068
510.077	4298.99067
510.285	4493.94868
510.492	4298.99067
510.7	4479.28101
510.908	4273.82115
511.116	4586.12069
511.324	4525.37578
511.531	4642.65946
511.739	4477.18554
511.947	4642.65946
512.155	4340.933
512.362	4659.40855
512.57	4623.81501
512.778	4661.50209
512.985	4577.74319
513.193	4761.96531
513.401	4594.49783
513.608	4715.92612
513.816	4663.5956
514.024	4470.89899
514.231	4686.62276
514.439	4826.82009
514.646	4634.28437
514.854	4946.01198
515.061	4701.27499
515.269	5056.77255
515.477	4847.73632
515.684	5040.05813
515.892	4994.08584
516.099	4843.55326
516.307	5102.72956
516.514	5094.37457
516.722	5040.05813
516.929	5165.38011
517.136	5037.96872
517.344	5257.22967
517.551	4969.00535
517.759	5255.14268
517.966	5169.55607
518.173	5282.2717
518.381	5138.2341
518.588	5280.18499
518.796	5238.44593
519.003	5344.86204
519.21	5163.29209
519.418	5530.42243
519.625	5388.66273
519.832	5403.26066
520.039	5286.44505
520.247	5503.32972
520.454	5642.91874
520.661	5609.59367
520.868	5319.82844
521.076	5880.18504
521.283	5728.28668
521.49	5603.34455
521.697	5303.13749
521.904	5751.18352
522.112	5592.92887
522.319	5857.3043
522.526	5615.84258
522.733	5915.54058
522.94	5846.90301
523.147	5805.29198
523.354	5580.42928
523.561	5792.80683
523.768	5719.95985
523.975	5963.3637
524.183	5711.63264
524.39	5928.01738
524.597	6169.06879
524.804	6063.1283
525.011	5971.67949
525.218	5982.0737
525.425	6121.29928
525.632	5982.0737
525.838	5988.30994
526.045	6135.83914
526.252	6027.80121
526.459	6202.29243
526.666	6231.35819
526.873	6210.5974
527.08	6260.41935
527.287	6434.69013
527.494	6270.79723
527.701	6322.67783
527.907	6380.76677
528.114	6633.65585
528.321	6418.10001
528.528	6658.5116
528.735	6306.07763
528.941	6380.76677
529.148	6223.05415
529.355	6606.72506
529.562	6320.60289
529.768	6554.9241
529.975	6301.92734
530.182	6498.96282
530.388	6592.22224
530.595	6606.72506
530.802	6561.14098
531.008	6865.51438
531.215	6873.78975
531.422	7103.28698
531.628	6908.956
531.835	6791.01971
532.042	6882.06475
532.248	6848.96256
532.455	6774.46132
532.661	6944.11571
532.868	6911.0244
533.074	6981.33652
533.281	7130.14694
533.487	7142.54258
533.694	6844.82437
533.9	7262.32589
534.107	6942.04767
534.313	7322.1897
534.52	7006.14633
534.726	7336.63682
534.933	7136.34486
535.139	7289.16367
535.345	7111.55198
535.552	7322.1897
535.758	7173.52817
535.965	7445.98748
536.171	7361.40082
536.377	7685.10961
536.584	7247.87323
536.79	7194.18245
536.996	7666.5673
537.203	7349.01922
537.409	7190.05177
537.615	7402.66717
537.821	7454.23788
538.028	7652.14431
538.234	7419.17127
538.44	7662.44655
538.646	7509.91905
538.853	7633.59895
539.059	7497.54682
539.265	7654.2048
539.471	7627.41678
539.677	7505.79506
539.883	7849.85533
540.09	7753.08346
540.296	7641.84155
540.502	7800.44566
540.708	7753.08346
540.914	7954.81128
541.12	7759.26177
541.326	8026.80901
541.532	7853.97226
541.738	8037.09237
541.944	7831.32811
542.15	7835.44541
542.356	7736.60706
542.562	8065.88307
542.768	8032.97909
542.974	8152.23147
543.18	8014.46832
543.386	8275.52531
543.592	8234.43528
543.798	8102.89387
544.004	8084.38928
544.21	8521.90207
544.415	8139.89815
544.621	8324.82298
544.827	8181.00642
545.033	8244.70853
545.239	8333.03817
545.445	8482.91086
545.651	8394.64213
545.856	8683.95045
546.062	8620.37577
546.268	8480.8585
546.474	8374.10941
546.679	8497.27684
546.885	8339.19935
547.091	8404.90776
547.297	8402.85467
547.502	8341.25304
547.708	8482.91086
547.914	8534.21366
548.119	8464.43894
548.325	8642.93657
548.531	8468.54395
548.736	8431.59615
548.942	8503.43341
549.147	8593.71008
549.353	8925.78339
549.559	8716.75623
549.764	8786.4529
549.97	8987.22648
550.175	8626.52894
550.381	8960.6031
550.586	8837.68702
550.792	9028.17974
550.997	8841.78526
551.203	9028.17974
551.408	8698.30356
551.614	9058.89009
551.819	9091.6435
552.025	9185.785
552.23	9067.07886
552.435	9335.10998
552.641	9255.34473
552.846	9271.7089
553.052	9216.47552
553.257	9404.62842
553.462	9228.75066
553.668	9420.98295
553.873	9373.96085
554.078	9455.73288
554.283	9357.60332
554.489	9414.85012
554.694	9506.82727
554.899	9639.62622
555.105	9392.36183
555.31	9470.04032
555.515	9488.43444
555.72	9741.73447
555.925	9247.16224
556.131	9800.93978
556.336	9373.96085
556.541	9474.12802
556.746	9427.11563
556.951	9660.05095
557.156	9220.5673
557.361	9743.77625
557.567	9664.13571
557.772	9843.8047
557.977	9639.62622
558.182	9588.55757
558.387	9641.66876
558.592	9823.39366
558.797	9700.89578
559.002	9670.26274
559.207	9582.42867
559.412	9933.59569
559.617	9615.11448
559.822	9802.98112
560.027	9666.17807
560.232	9564.04113
560.437	9770.31794
560.642	9880.54083
560.847	9872.37766
561.051	10178.33827
561.256	9807.06375
561.461	9884.62232
561.666	9864.21425
561.871	10113.09348
562.076	9921.35314
562.281	10060.07153
562.485	9892.78514
562.69	10078.42636
562.895	9688.64298
563.1	10037.63629
563.305	10088.623
563.509	9996.84052
563.714	10035.59664
563.919	10239.49243
564.123	10027.43789
564.328	10259.87443
564.533	10019.27891
564.737	10278.21706
564.942	9939.71676
565.147	10422.88223
565.351	10325.08775
565.556	10257.83629
565.761	10274.14102
565.965	10386.21285
566.17	10239.49243
566.374	10483.98854
566.579	10176.29959
566.784	10382.13821
566.988	10196.68582
567.193	10406.58525
567.397	10170.18345
567.602	10439.17839
567.806	10125.32796
568.011	10577.66258
568.215	10143.67875
568.42	10437.14141
568.624	10508.42783
568.828	10428.99339
569.033	10286.369
569.237	10520.64679
569.442	10524.71967
569.646	10598.02298
569.85	10608.20272
570.055	10642.81151
570.259	10638.74007
570.463	10685.55865
570.668	10504.35474
570.872	10773.07188
571.076	10555.26469
571.281	10848.35641
571.485	10652.98989
571.689	10771.03694
571.893	10803.59457
572.098	10921.59098
572.302	10691.66494
572.506	10789.35098
572.71	10724.23002
572.914	10626.52546
573.119	10964.30433
573.323	10852.42539
573.527	10614.31041
573.731	10974.47344
573.935	10945.99922
574.139	11098.51433
574.343	10821.90692
574.547	11126.97702
574.751	11110.71288
574.955	11053.78298
575.159	10858.52877
575.364	11047.68284
575.568	11163.56882
575.772	11287.54911
575.976	10907.35209
576.18	10880.90695
576.383	11248.93643
576.587	11419.6176
