Data from mixed_try1_USB4F045381__8__00073.txt Node

Date: Thu Apr 03 19:51:26 EDT 2025
User: mmckonesweet
Spectrometer: USB4F04538
Trigger mode: 4
Integration Time (sec): 2.700000E-3
Scans to average: 1
Electric dark correction enabled: true
Nonlinearity correction enabled: true
Boxcar width: 0
XAxis mode: Wavelengths
Number of Pixels in Spectrum: 3648
>>>>>Begin Spectral Data<<<<<
345.52	15.10348
345.736	15.10348
345.952	15.10348
346.168	-48.11204
346.384	36.18013
346.6	-18.61421
346.816	61.47521
347.032	-1.75614
347.248	-69.17891
347.464	-5.9708
347.68	23.53386
347.896	-1.75614
348.112	-56.53909
348.328	31.96461
348.544	63.58328
348.76	-3.86348
348.975	-22.82848
349.191	-56.53909
349.407	19.31862
349.623	19.31862
349.839	-5.9708
350.055	44.61145
350.27	-5.9708
350.486	-22.82848
350.702	6.67348
350.918	61.47521
351.133	38.28793
351.349	27.74919
351.565	-27.04265
351.781	36.18013
351.996	-39.68458
352.212	-22.82848
352.428	-5.9708
352.644	15.10348
352.859	10.88843
353.075	17.21104
353.291	29.85689
353.506	-54.43236
353.722	38.28793
353.938	-31.25673
354.153	6.67348
354.369	4.56604
354.584	-35.47071
354.8	-20.72135
355.016	0.35123
355.231	17.21104
355.447	-37.57766
355.662	-3.86348
355.878	10.88843
356.093	-14.39983
356.309	-48.11204
356.524	-14.39983
356.74	19.31862
356.955	-22.82848
357.171	2.45862
357.386	-8.0781
357.602	-12.29261
357.817	27.74919
358.033	-31.25673
358.248	-27.04265
358.464	-12.29261
358.679	67.79949
358.895	23.53386
359.11	-22.82848
359.325	-31.25673
359.541	6.67348
359.756	-90.24323
359.972	2.45862
360.187	-5.9708
360.402	53.04315
360.618	38.28793
360.833	21.42623
361.048	-37.57766
361.264	2.45862
361.479	-10.18537
361.694	0.35123
361.909	-12.29261
362.125	-33.36373
362.34	2.45862
362.555	15.10348
362.77	-12.29261
362.986	8.78094
363.201	17.21104
363.416	-24.93558
363.631	-8.0781
363.847	44.61145
364.062	-37.57766
364.277	78.34042
364.492	-20.72135
364.707	34.07236
364.922	15.10348
365.138	-3.86348
365.353	4.56604
365.568	10.88843
365.783	-10.18537
365.998	-56.53909
366.213	36.18013
366.428	-27.04265
366.643	34.07236
366.858	19.31862
367.073	36.18013
367.288	-43.89836
367.503	19.31862
367.718	6.67348
367.933	6.67348
368.148	-12.29261
368.363	-10.18537
368.578	44.61145
368.793	53.04315
369.008	10.88843
369.223	-5.9708
369.438	10.88843
369.653	-3.86348
369.868	-5.9708
370.083	10.88843
370.298	2.45862
370.513	-14.39983
370.728	-20.72135
370.943	8.78094
371.157	-31.25673
371.372	38.28793
371.587	-71.28546
371.802	27.74919
372.017	55.15113
372.232	36.18013
372.446	72.0158
372.661	-31.25673
372.876	8.78094
373.091	15.10348
373.306	-46.00521
373.52	-56.53909
373.735	-50.21884
373.95	-54.43236
374.165	-14.39983
374.379	8.78094
374.594	23.53386
374.809	40.39575
375.023	-22.82848
375.238	-39.68458
375.453	36.18013
375.667	-39.68458
375.882	4.56604
376.097	-22.82848
376.311	-12.29261
376.526	23.53386
376.741	-5.9708
376.955	-14.39983
377.17	-31.25673
377.384	0.35123
377.599	-5.9708
377.813	-3.86348
378.028	-37.57766
378.242	-29.1497
378.457	-46.00521
378.672	69.90763
378.886	-33.36373
379.101	12.99594
379.315	72.0158
379.53	46.71934
379.744	-20.72135
379.958	12.99594
380.173	69.90763
380.387	19.31862
380.602	-22.82848
380.816	-14.39983
381.031	6.67348
381.245	38.28793
381.459	36.18013
381.674	84.66525
381.888	-20.72135
382.103	10.88843
382.317	19.31862
382.531	-39.68458
382.746	-29.1497
382.96	69.90763
383.174	-14.39983
383.388	15.10348
383.603	31.96461
383.817	-3.86348
384.031	12.99594
384.246	-20.72135
384.46	67.79949
384.674	90.99028
384.888	-22.82848
385.103	-58.64579
385.317	-18.61421
385.531	29.85689
385.745	-20.72135
385.959	2.45862
386.174	46.71934
386.388	63.58328
386.602	-33.36373
386.816	2.45862
387.03	46.71934
387.244	31.96461
387.458	-1.75614
387.672	84.66525
387.887	10.88843
388.101	72.0158
388.315	-18.61421
388.529	-39.68458
388.743	-14.39983
388.957	38.28793
389.171	120.50972
389.385	21.42623
389.599	-31.25673
389.813	46.71934
390.027	-5.9708
390.241	-46.00521
390.455	2.45862
390.669	61.47521
390.883	-48.11204
391.097	23.53386
391.311	-5.9708
391.525	-39.68458
391.738	29.85689
391.952	-37.57766
392.166	-5.9708
392.38	-67.07234
392.594	-16.50703
392.808	19.31862
393.022	-14.39983
393.236	38.28793
393.449	-31.25673
393.663	10.88843
393.877	38.28793
394.091	36.18013
394.305	19.31862
394.518	-88.13691
394.732	-10.18537
394.946	-27.04265
395.16	2.45862
395.373	-37.57766
395.587	-14.39983
395.801	-22.82848
396.015	46.71934
396.228	42.50359
396.442	-43.89836
396.656	78.34042
396.869	-3.86348
397.083	31.96461
397.297	36.18013
397.51	-22.82848
397.724	38.28793
397.938	-41.79148
398.151	-14.39983
398.365	-62.85911
398.578	0.35123
398.792	-48.11204
399.005	40.39575
399.219	-24.93558
399.433	88.88192
399.646	80.44868
399.86	53.04315
400.073	-14.39983
400.287	48.82725
400.5	-29.1497
400.714	6.67348
400.927	19.31862
401.141	-14.39983
401.354	-39.68458
401.567	-3.86348
401.781	61.47521
401.994	10.88843
402.208	38.28793
402.421	10.88843
402.635	23.53386
402.848	27.74919
403.061	19.31862
403.275	69.90763
403.488	-29.1497
403.701	76.23219
403.915	-1.75614
404.128	36.18013
404.341	-35.47071
404.555	27.74919
404.768	-77.60495
404.981	23.53386
405.195	19.31862
405.408	23.53386
405.621	25.64151
405.834	-24.93558
406.048	57.25913
406.261	12.99594
406.474	-46.00521
406.687	17.21104
406.9	55.15113
407.114	-16.50703
407.327	-31.25673
407.54	-39.68458
407.753	-31.25673
407.966	-29.1497
408.179	-5.9708
408.392	29.85689
408.605	-29.1497
408.819	-3.86348
409.032	-16.50703
409.245	-48.11204
409.458	6.67348
409.671	36.18013
409.884	-24.93558
410.097	4.56604
410.31	2.45862
410.523	-18.61421
410.736	-48.11204
410.949	-5.9708
411.162	-64.96574
411.375	53.04315
411.588	63.58328
411.801	-14.39983
412.014	6.67348
412.227	-3.86348
412.44	2.45862
412.653	63.58328
412.865	36.18013
413.078	-20.72135
413.291	-1.75614
413.504	0.35123
413.717	63.58328
413.93	-12.29261
414.143	27.74919
414.356	31.96461
414.568	-64.96574
414.781	8.78094
414.994	48.82725
415.207	-94.45578
415.42	88.88192
415.632	-24.93558
415.845	27.74919
416.058	-12.29261
416.271	8.78094
416.483	36.18013
416.696	-31.25673
416.909	17.21104
417.121	-3.86348
417.334	-48.11204
417.547	-31.25673
417.759	-77.60495
417.972	-5.9708
418.185	10.88843
418.397	-14.39983
418.61	10.88843
418.823	-12.29261
419.035	-5.9708
419.248	-22.82848
419.46	36.18013
419.673	-37.57766
419.885	23.53386
420.098	-98.66823
420.311	27.74919
420.523	4.56604
420.736	-39.68458
420.948	128.94464
421.161	17.21104
421.373	55.15113
421.586	38.28793
421.798	-48.11204
422.01	69.90763
422.223	46.71934
422.435	-3.86348
422.648	-56.53909
422.86	15.10348
423.073	-39.68458
423.285	-8.0781
423.497	-14.39983
423.71	-46.00521
423.922	31.96461
424.134	-73.39198
424.347	-69.17891
424.559	76.23219
424.771	-18.61421
424.984	-22.82848
425.196	-22.82848
425.408	38.28793
425.621	57.25913
425.833	-12.29261
426.045	-8.0781
426.257	-41.79148
426.47	44.61145
426.682	21.42623
426.894	31.96461
427.106	-14.39983
427.318	-10.18537
427.531	6.67348
427.743	15.10348
427.955	-98.66823
428.167	57.25913
428.379	23.53386
428.591	-56.53909
428.804	53.04315
429.016	-90.24323
429.228	-41.79148
429.44	36.18013
429.652	-43.89836
429.864	8.78094
430.076	-24.93558
430.288	10.88843
430.5	44.61145
430.712	59.36716
430.924	-35.47071
431.136	31.96461
431.348	46.71934
431.56	-60.75247
431.772	95.20708
431.984	19.31862
432.196	-27.04265
432.408	-41.79148
432.62	8.78094
432.832	105.74946
433.044	27.74919
433.256	-77.60495
433.468	-43.89836
433.679	-1.75614
433.891	27.74919
434.103	19.31862
434.315	-22.82848
434.527	44.61145
434.739	-16.50703
434.95	-33.36373
435.162	-31.25673
435.374	-31.25673
435.586	-8.0781
435.798	-22.82848
436.009	-10.18537
436.221	23.53386
436.433	-58.64579
436.645	19.31862
436.856	-22.82848
437.068	12.99594
437.28	-3.86348
437.491	-56.53909
437.703	15.10348
437.915	-22.82848
438.126	63.58328
438.338	-60.75247
438.55	23.53386
438.761	-27.04265
438.973	-1.75614
439.184	-5.9708
439.396	69.90763
439.608	-22.82848
439.819	48.82725
440.031	2.45862
440.242	78.34042
440.454	-35.47071
440.665	-77.60495
440.877	-22.82848
441.088	-43.89836
441.3	-48.11204
441.511	4.56604
441.723	-5.9708
441.934	-5.9708
442.146	-62.85911
442.357	4.56604
442.569	2.45862
442.78	-27.04265
442.991	48.82725
443.203	-12.29261
443.414	0.35123
443.626	84.66525
443.837	-1.75614
444.048	-14.39983
444.26	31.96461
444.471	-14.39983
444.682	27.74919
444.894	-50.21884
445.105	21.42623
445.316	23.53386
445.528	-50.21884
445.739	-39.68458
445.95	12.99594
446.161	-48.11204
446.373	86.77357
446.584	55.15113
446.795	-3.86348
447.006	12.99594
447.217	10.88843
447.429	19.31862
447.64	-22.82848
447.851	44.61145
448.062	40.39575
448.273	15.10348
448.484	46.71934
448.695	-39.68458
448.907	69.90763
449.118	0.35123
449.329	80.44868
449.54	-86.03057
449.751	10.88843
449.962	78.34042
450.173	23.53386
450.384	-64.96574
450.595	10.88843
450.806	112.07516
451.017	10.88843
451.228	-22.82848
451.439	-31.25673
451.65	40.39575
451.861	36.18013
452.072	-1.75614
452.283	-5.9708
452.494	12.99594
452.705	-27.04265
452.915	31.96461
453.126	29.85689
453.337	-33.36373
453.548	27.74919
453.759	27.74919
453.97	2.45862
454.181	23.53386
454.391	-3.86348
454.602	-41.79148
454.813	61.47521
455.024	-3.86348
455.235	88.88192
455.445	44.61145
455.656	-1.75614
455.867	103.64094
456.078	29.85689
456.288	-16.50703
456.499	38.28793
456.71	38.28793
456.921	55.15113
457.131	-43.89836
457.342	17.21104
457.553	12.99594
457.763	-14.39983
457.974	-35.47071
458.184	55.15113
458.395	-5.9708
458.606	61.47521
458.816	-39.68458
459.027	46.71934
459.237	40.39575
459.448	-48.11204
459.659	-18.61421
459.869	-48.11204
460.08	-12.29261
460.29	10.88843
460.501	29.85689
460.711	61.47521
460.922	-14.39983
461.132	46.71934
461.343	-22.82848
461.553	-86.03057
461.764	44.61145
461.974	-39.68458
462.184	-10.18537
462.395	25.64151
462.605	19.31862
462.816	-14.39983
463.026	-79.71139
463.236	40.39575
463.447	48.82725
463.657	2.45862
463.867	12.99594
464.078	29.85689
464.288	19.31862
464.498	36.18013
464.709	36.18013
464.919	6.67348
465.129	2.45862
465.339	-29.1497
465.55	-29.1497
465.76	-14.39983
465.97	0.35123
466.18	4.56604
466.391	78.34042
466.601	10.88843
466.811	-14.39983
467.021	57.25913
467.231	-86.03057
467.441	48.82725
467.651	-20.72135
467.862	23.53386
468.072	46.71934
468.282	-29.1497
468.492	-31.25673
468.702	36.18013
468.912	-22.82848
469.122	12.99594
469.332	-31.25673
469.542	65.69137
469.752	17.21104
469.962	-5.9708
470.172	67.79949
470.382	-39.68458
470.592	-29.1497
470.802	10.88843
471.012	29.85689
471.222	-43.89836
471.432	10.88843
471.642	53.04315
471.852	-12.29261
472.062	-16.50703
472.272	-8.0781
472.482	2.45862
472.691	4.56604
472.901	-1.75614
473.111	27.74919
473.321	29.85689
473.531	4.56604
473.741	-18.61421
473.95	53.04315
474.16	10.88843
474.37	36.18013
474.58	10.88843
474.79	10.88843
474.999	0.35123
475.209	-24.93558
475.419	53.04315
475.628	10.88843
475.838	-39.68458
476.048	2.45862
476.258	38.28793
476.467	27.74919
476.677	-16.50703
476.886	2.45862
477.096	23.53386
477.306	6.67348
477.515	-14.39983
477.725	19.31862
477.935	27.74919
478.144	-14.39983
478.354	-39.68458
478.563	76.23219
478.773	15.10348
478.982	55.15113
479.192	-46.00521
479.401	65.69137
479.611	2.45862
479.82	-12.29261
480.03	27.74919
480.239	44.61145
480.449	6.67348
480.658	15.10348
480.868	-10.18537
481.077	27.74919
481.287	53.04315
481.496	-29.1497
481.705	57.25913
481.915	-16.50703
482.124	65.69137
482.333	19.31862
482.543	-3.86348
482.752	15.10348
482.961	27.74919
483.171	15.10348
483.38	19.31862
483.589	27.74919
483.799	-1.75614
484.008	-31.25673
484.217	-14.39983
484.426	6.67348
484.636	-16.50703
484.845	19.31862
485.054	-35.47071
485.263	-58.64579
485.472	10.88843
485.682	-24.93558
485.891	6.67348
486.1	-20.72135
486.309	-5.9708
486.518	-31.25673
486.727	-35.47071
486.936	-24.93558
487.146	63.58328
487.355	-10.18537
487.564	-41.79148
487.773	-1.75614
487.982	29.85689
488.191	-14.39983
488.4	10.88843
488.609	50.93519
488.818	10.88843
489.027	31.96461
489.236	42.50359
489.445	-37.57766
489.654	78.34042
489.863	-12.29261
490.072	55.15113
490.281	27.74919
490.49	12.99594
490.698	-54.43236
490.907	21.42623
491.116	6.67348
491.325	74.12398
491.534	-27.04265
491.743	31.96461
491.952	46.71934
492.16	107.85801
492.369	72.0158
492.578	31.96461
492.787	53.04315
492.996	38.28793
493.204	4.56604
493.413	88.88192
493.622	12.99594
493.831	6.67348
494.039	-46.00521
494.248	4.56604
494.457	15.10348
494.665	40.39575
494.874	103.64094
495.083	53.04315
495.291	99.42397
495.5	-20.72135
495.709	29.85689
495.917	12.99594
496.126	31.96461
496.335	19.31862
496.543	21.42623
496.752	19.31862
496.96	-8.0781
497.169	36.18013
497.377	-31.25673
497.586	6.67348
497.794	21.42623
498.003	6.67348
498.211	-20.72135
498.42	69.90763
498.628	38.28793
498.837	46.71934
499.045	61.47521
499.254	19.31862
499.462	10.88843
499.671	19.31862
499.879	90.99028
500.087	29.85689
500.296	38.28793
500.504	12.99594
500.713	4.56604
500.921	-1.75614
501.129	50.93519
501.338	44.61145
501.546	36.18013
501.754	65.69137
501.962	23.53386
502.171	44.61145
502.379	2.45862
502.587	-46.00521
502.795	42.50359
503.004	10.88843
503.212	-27.04265
503.42	0.35123
503.628	-46.00521
503.837	-50.21884
504.045	-3.86348
504.253	-35.47071
504.461	-1.75614
504.669	44.61145
504.877	-46.00521
505.085	78.34042
505.294	114.18377
505.502	-31.25673
505.71	-14.39983
505.918	-12.29261
506.126	36.18013
506.334	-27.04265
506.542	44.61145
506.75	74.12398
506.958	-5.9708
507.166	124.72714
507.374	-29.1497
507.582	27.74919
507.79	36.18013
507.998	55.15113
508.206	50.93519
508.414	-1.75614
508.622	90.99028
508.83	0.35123
509.037	44.61145
509.245	8.78094
509.453	69.90763
509.661	29.85689
509.869	-5.9708
510.077	46.71934
510.285	34.07236
510.492	27.74919
510.7	36.18013
510.908	78.34042
511.116	-43.89836
511.324	15.10348
511.531	-46.00521
511.739	-10.18537
511.947	78.34042
512.155	-5.9708
512.362	-12.29261
512.57	-3.86348
512.778	99.42397
512.985	6.67348
513.193	-5.9708
513.401	103.64094
513.608	-64.96574
513.816	46.71934
514.024	-22.82848
514.231	-29.1497
514.439	46.71934
514.646	0.35123
514.854	-20.72135
515.061	105.74946
515.269	-24.93558
515.477	-64.96574
515.684	44.61145
515.892	19.31862
516.099	27.74919
516.307	-27.04265
516.514	31.96461
516.722	-22.82848
516.929	-5.9708
517.136	12.99594
517.344	53.04315
517.551	17.21104
517.759	46.71934
517.966	-46.00521
518.173	63.58328
518.381	-27.04265
518.588	103.64094
518.796	55.15113
519.003	101.53244
519.21	105.74946
519.418	2.45862
519.625	12.99594
519.832	4.56604
520.039	69.90763
520.247	53.04315
520.454	42.50359
520.661	36.18013
520.868	12.99594
521.076	-1.75614
521.283	55.15113
521.49	21.42623
521.697	21.42623
521.904	21.42623
522.112	84.66525
522.319	36.18013
522.526	42.50359
522.733	6.67348
522.94	2.45862
523.147	67.79949
523.354	103.64094
523.561	23.53386
523.768	2.45862
523.975	-20.72135
524.183	46.71934
524.39	-10.18537
524.597	69.90763
524.804	72.0158
525.011	74.12398
525.218	63.58328
525.425	80.44868
525.632	27.74919
525.838	27.74919
526.045	8.78094
526.252	-22.82848
526.459	69.90763
526.666	-12.29261
526.873	50.93519
527.08	107.85801
527.287	55.15113
527.494	97.31551
527.701	50.93519
527.907	44.61145
528.114	143.70656
528.321	40.39575
528.528	53.04315
528.735	12.99594
528.941	103.64094
529.148	44.61145
529.355	36.18013
529.562	31.96461
529.768	63.58328
529.975	61.47521
530.182	10.88843
530.388	69.90763
530.595	78.34042
530.802	29.85689
531.008	61.47521
531.215	61.47521
531.422	65.69137
531.628	12.99594
531.835	10.88843
532.042	4.56604
532.248	114.18377
532.455	-8.0781
532.661	53.04315
532.868	55.15113
533.074	95.20708
533.281	95.20708
533.487	72.0158
533.694	116.2924
533.9	69.90763
534.107	44.61145
534.313	38.28793
534.52	50.93519
534.726	4.56604
534.933	42.50359
535.139	40.39575
535.345	63.58328
535.552	78.34042
535.758	38.28793
535.965	21.42623
536.171	15.10348
536.377	57.25913
536.584	55.15113
536.79	17.21104
536.996	40.39575
537.203	86.77357
537.409	65.69137
537.615	112.07516
537.821	69.90763
538.028	48.82725
538.234	48.82725
538.44	38.28793
538.646	95.20708
538.853	53.04315
539.059	137.37989
539.265	63.58328
539.471	55.15113
539.677	88.88192
539.883	21.42623
540.09	82.55695
540.296	103.64094
540.502	74.12398
540.708	38.28793
540.914	63.58328
541.12	63.58328
541.326	82.55695
541.532	74.12398
541.738	78.34042
541.944	19.31862
542.15	112.07516
542.356	112.07516
542.562	103.64094
542.768	128.94464
542.974	63.58328
543.18	154.25143
543.386	-3.86348
543.592	160.57861
543.798	103.64094
544.004	95.20708
544.21	61.47521
544.415	53.04315
544.621	10.88843
544.827	103.64094
545.033	97.31551
545.239	65.69137
545.445	86.77357
545.651	55.15113
545.856	78.34042
546.062	107.85801
546.268	61.47521
546.474	80.44868
546.679	116.2924
546.885	42.50359
547.091	93.09867
547.297	72.0158
547.502	139.48876
547.708	69.90763
547.914	78.34042
548.119	137.37989
548.325	86.77357
548.531	44.61145
548.736	116.2924
548.942	80.44868
549.147	40.39575
549.353	97.31551
549.559	95.20708
549.764	154.25143
549.97	61.47521
550.175	137.37989
550.381	61.47521
550.586	82.55695
550.792	139.48876
550.997	72.0158
551.203	80.44868
551.408	162.68771
551.614	124.72714
551.819	114.18377
552.025	116.2924
552.23	116.2924
552.435	88.88192
552.641	97.31551
552.846	128.94464
553.052	120.50972
553.257	95.20708
553.462	164.79683
553.668	107.85801
553.873	131.05342
554.078	42.50359
554.283	128.94464
554.489	122.61842
554.694	114.18377
554.899	183.77985
555.105	116.2924
555.31	82.55695
555.515	103.64094
555.72	114.18377
555.925	139.48876
556.131	21.42623
556.336	156.36047
556.541	160.57861
556.746	164.79683
556.951	162.68771
557.156	128.94464
557.361	112.07516
557.567	78.34042
557.772	187.99852
557.977	114.18377
558.182	192.21728
558.387	179.56125
558.592	112.07516
558.797	112.07516
559.002	171.12431
559.207	175.34274
559.412	137.37989
559.617	135.27105
559.822	185.88917
560.027	156.36047
560.232	175.34274
560.437	202.76452
560.642	112.07516
560.847	181.67054
561.051	230.1897
561.256	112.07516
561.461	192.21728
561.666	116.2924
561.871	192.21728
562.076	150.03342
562.281	196.43612
562.485	183.77985
562.69	225.97022
562.895	107.85801
563.1	204.87403
563.305	154.25143
563.509	215.42188
563.714	166.90597
563.919	181.67054
564.123	147.92445
564.328	139.48876
564.533	112.07516
564.737	147.92445
564.942	187.99852
565.147	211.20268
565.351	234.40925
565.556	240.73873
565.761	158.46953
565.965	137.37989
566.17	145.81549
566.374	223.86052
566.579	131.05342
566.784	225.97022
566.988	196.43612
567.193	78.34042
567.397	128.94464
567.602	238.62888
567.806	204.87403
568.011	200.65503
568.215	171.12431
568.42	268.16846
568.624	280.82941
568.828	192.21728
569.033	175.34274
569.237	263.94829
569.442	175.34274
569.646	204.87403
569.85	200.65503
570.055	200.65503
570.259	187.99852
570.463	183.77985
570.668	190.10789
570.872	247.06838
571.076	251.28824
571.281	211.20268
571.485	204.87403
571.689	221.75083
571.893	249.1783
572.098	221.75083
572.302	169.01513
572.506	306.15332
572.71	223.86052
572.914	219.64116
573.119	238.62888
573.323	263.94829
573.527	230.1897
573.731	316.70572
573.935	255.50818
574.139	339.92257
574.343	223.86052
574.547	221.75083
574.751	230.1897
574.955	255.50818
575.159	247.06838
575.364	272.3887
575.568	198.54556
575.772	365.25246
575.976	297.71172
576.18	259.7282
576.383	244.95848
576.587	268.16846
576.791	249.1783
576.995	280.82941
577.199	320.92681
577.403	310.37423
577.607	206.98356
577.811	449.70275
578.015	316.70572
578.219	263.94829
578.422	162.68771
578.626	342.0333
578.83	367.3634
579.034	428.58776
579.238	285.04988
579.442	306.15332
579.645	306.15332
579.849	388.47368
580.053	390.5848
580.257	312.48471
580.46	293.49103
580.664	407.47436
580.868	316.70572
581.071	375.80731
581.275	274.49885
581.479	350.47639
581.682	242.84859
581.886	280.82941
582.09	314.5952
582.293	415.91952
582.497	297.71172
582.7	361.03064
582.904	320.92681
583.107	405.3631
583.311	316.70572
583.515	342.0333
583.718	268.16846
583.922	451.81433
584.125	367.3634
584.329	432.81063
584.532	306.15332
584.735	356.80889
584.939	392.69594
