Data from mixed_try1_USB4F045381__11__00076.txt Node

Date: Thu Apr 03 19:51:51 EDT 2025
User: mmckonesweet
Spectrometer: USB4F04538
Trigger mode: 4
Integration Time (sec): 2.700000E-3
Scans to average: 1
Electric dark correction enabled: true
Nonlinearity correction enabled: true
Boxcar width: 0
XAxis mode: Wavelengths
Number of Pixels in Spectrum: 3648
>>>>>Begin Spectral Data<<<<<
345.52	86.42218
345.736	86.42218
345.952	86.42218
346.168	-37.92881
346.384	6.32224
346.6	33.72107
346.816	18.96735
347.032	0
347.248	35.82884
347.464	-10.53658
347.68	-23.17966
347.896	-14.75104
348.112	-54.78349
348.328	-4.2147
348.544	23.18258
348.76	-48.46317
348.975	44.26014
349.191	18.96735
349.407	27.39791
349.623	31.61332
349.839	10.53718
350.055	44.26014
350.27	-54.78349
350.486	-4.2147
350.702	-6.32202
350.918	10.53718
351.133	42.15228
351.349	37.93663
351.565	-33.71489
351.781	12.64469
351.996	2.10739
352.212	27.39791
352.428	48.47593
352.644	46.36803
352.859	-14.75104
353.075	46.36803
353.291	14.75222
353.506	12.64469
353.722	42.15228
353.938	-33.71489
354.153	80.0973
354.369	10.53718
354.584	27.39791
354.8	-25.28676
355.016	14.75222
355.231	10.53718
355.447	-56.89021
355.662	2.10739
355.878	-18.9654
356.093	44.26014
356.309	10.53718
356.524	4.2148
356.74	-10.53658
356.955	-10.53658
357.171	2.10739
357.386	46.36803
357.602	-4.2147
357.817	-14.75104
358.033	-14.75104
358.248	-8.42931
358.464	-44.2495
358.679	65.34002
358.895	-10.53658
359.11	40.04444
359.325	46.36803
359.541	71.66443
359.756	-4.2147
359.972	-23.17966
360.187	-2.10736
360.402	54.79979
360.618	33.72107
360.833	40.04444
361.048	-27.39383
361.264	52.69182
361.479	35.82884
361.694	50.58386
361.909	-16.85823
362.125	-44.2495
362.34	35.82884
362.555	44.26014
362.77	27.39791
362.986	14.75222
363.201	18.96735
363.416	-4.2147
363.631	86.42218
363.847	2.10739
364.062	21.07496
364.277	40.04444
364.492	-14.75104
364.707	-6.32202
364.922	18.96735
365.138	52.69182
365.353	44.26014
365.568	0
365.783	-33.71489
365.998	-6.32202
366.213	-4.2147
366.428	-4.2147
366.643	6.32224
366.858	10.53718
367.073	10.53718
367.288	128.59318
367.503	61.12386
367.718	52.69182
367.933	-4.2147
368.148	69.55627
368.363	37.93663
368.578	-12.64382
368.793	-10.53658
369.008	42.15228
369.223	12.64469
369.438	44.26014
369.653	-6.32202
369.868	16.85977
370.083	96.96411
370.298	77.98905
370.513	31.61332
370.728	4.2148
370.943	8.4297
371.157	-46.35635
371.372	52.69182
371.587	42.15228
371.802	48.47593
372.017	65.34002
372.232	-10.53658
372.446	14.75222
372.661	73.77262
372.876	-18.9654
373.091	65.34002
373.306	-4.2147
373.52	29.5056
373.735	44.26014
373.95	77.98905
374.165	-23.17966
374.379	48.47593
374.594	35.82884
374.809	27.39791
375.023	27.39791
375.238	-21.07254
375.453	69.55627
375.667	40.04444
375.882	6.32224
376.097	10.53718
376.311	27.39791
376.526	61.12386
376.741	-23.17966
376.955	-31.6079
377.17	10.53718
377.384	-73.74306
377.599	-6.32202
377.813	35.82884
378.028	-10.53658
378.242	18.96735
378.457	6.32224
378.672	-6.32202
378.886	4.2148
379.101	86.42218
379.315	-29.50088
379.53	35.82884
379.744	-37.92881
379.958	-29.50088
380.173	6.32224
380.387	-16.85823
380.602	61.12386
380.816	-35.82187
381.031	63.23193
381.245	61.12386
381.459	-2.10736
381.674	-29.50088
381.888	10.53718
382.103	46.36803
382.317	-40.03573
382.531	-2.10736
382.746	40.04444
382.96	18.96735
383.174	-2.10736
383.388	-10.53658
383.603	-2.10736
383.817	-31.6079
384.031	35.82884
384.246	35.82884
384.46	18.96735
384.674	-2.10736
384.888	37.93663
385.103	52.69182
385.317	-35.82187
385.531	29.5056
385.745	23.18258
385.959	18.96735
386.174	21.07496
386.388	-6.32202
386.602	-18.9654
386.816	2.10739
387.03	21.07496
387.244	56.90779
387.458	29.5056
387.672	69.55627
387.887	33.72107
388.101	120.15828
388.315	4.2148
388.529	21.07496
388.743	14.75222
388.957	88.53052
389.171	-4.2147
389.385	12.64469
389.599	-16.85823
389.813	-12.64382
390.027	27.39791
390.241	18.96735
390.455	-14.75104
390.669	27.39791
390.883	18.96735
391.097	2.10739
391.311	4.2148
391.525	-6.32202
391.738	-63.21022
391.952	42.15228
392.166	21.07496
392.38	52.69182
392.594	-23.17966
392.808	40.04444
393.022	10.53718
393.236	69.55627
393.449	-12.64382
393.663	50.58386
393.877	-31.6079
394.091	29.5056
394.305	-4.2147
394.518	6.32224
394.732	96.96411
394.946	63.23193
395.16	-69.53
395.373	69.55627
395.587	52.69182
395.801	63.23193
396.015	71.66443
396.228	-10.53658
396.442	52.69182
396.656	12.64469
396.869	-21.07254
397.083	29.5056
397.297	-18.9654
397.51	18.96735
397.724	65.34002
397.938	40.04444
398.151	48.47593
398.365	44.26014
398.578	-23.17966
398.792	-61.10358
399.005	12.64469
399.219	35.82884
399.433	-50.56997
399.646	10.53718
399.86	21.07496
400.073	48.47593
400.287	4.2148
400.5	10.53718
400.714	16.85977
400.927	86.42218
401.141	48.47593
401.354	4.2148
401.567	-37.92881
401.781	46.36803
401.994	50.58386
402.208	44.26014
402.421	96.96411
402.635	21.07496
402.848	46.36803
403.061	44.26014
403.275	63.23193
403.488	75.88082
403.701	2.10739
403.915	-37.92881
404.128	-65.31684
404.341	37.93663
404.555	12.64469
404.768	-48.46317
404.981	4.2148
405.195	-6.32202
405.408	-27.39383
405.621	37.93663
405.834	73.77262
406.048	-12.64382
406.261	44.26014
406.474	8.4297
406.687	8.4297
406.9	-18.9654
407.114	-4.2147
407.327	-12.64382
407.54	-58.9969
407.753	2.10739
407.966	-18.9654
408.179	35.82884
408.392	37.93663
408.605	73.77262
408.819	10.53718
409.032	48.47593
409.245	44.26014
409.458	10.53718
409.671	48.47593
409.884	4.2148
410.097	31.61332
410.31	-4.2147
410.523	61.12386
410.736	40.04444
410.949	52.69182
411.162	46.36803
411.375	6.32224
411.588	25.29023
411.801	69.55627
412.014	4.2148
412.227	-12.64382
412.44	35.82884
412.653	40.04444
412.865	35.82884
413.078	69.55627
413.291	71.66443
413.504	61.12386
413.717	10.53718
413.93	86.42218
414.143	2.10739
414.356	-2.10736
414.568	-31.6079
414.781	-48.46317
414.994	-52.67674
415.207	21.07496
415.42	48.47593
415.632	-4.2147
415.845	4.2148
416.058	-14.75104
416.271	48.47593
416.483	-27.39383
416.696	-14.75104
416.909	-65.31684
417.121	-12.64382
417.334	31.61332
417.547	44.26014
417.759	-44.2495
417.972	86.42218
418.185	23.18258
418.397	-10.53658
418.61	-14.75104
418.823	-65.31684
419.035	73.77262
419.248	35.82884
419.46	2.10739
419.673	46.36803
419.885	48.47593
420.098	10.53718
420.311	84.31387
420.523	-14.75104
420.736	-10.53658
420.948	111.72373
421.161	46.36803
421.373	14.75222
421.586	54.79979
421.798	61.12386
422.01	27.39791
422.223	37.93663
422.435	2.10739
422.648	-4.2147
422.86	27.39791
423.073	23.18258
423.285	-21.07254
423.497	35.82884
423.71	-18.9654
423.922	-37.92881
424.134	61.12386
424.347	-29.50088
424.559	-61.10358
424.771	-44.2495
424.984	-23.17966
425.196	2.10739
425.408	69.55627
425.621	-23.17966
425.833	12.64469
426.045	18.96735
426.257	-4.2147
426.47	69.55627
426.682	37.93663
426.894	69.55627
427.106	-25.28676
427.318	-2.10736
427.531	12.64469
427.743	86.42218
427.955	2.10739
428.167	63.23193
428.379	35.82884
428.591	73.77262
428.804	-6.32202
429.016	37.93663
429.228	16.85977
429.44	115.94096
429.652	73.77262
429.864	37.93663
430.076	-23.17966
430.288	10.53718
430.5	56.90779
430.712	69.55627
430.924	-10.53658
431.136	46.36803
431.348	46.36803
431.56	52.69182
431.772	48.47593
431.984	2.10739
432.196	35.82884
432.408	-48.46317
432.62	-12.64382
432.832	59.01582
433.044	40.04444
433.256	23.18258
433.468	-21.07254
433.679	61.12386
433.891	18.96735
434.103	12.64469
434.315	4.2148
434.527	48.47593
434.739	-37.92881
434.95	2.10739
435.162	75.88082
435.374	-48.46317
435.586	77.98905
435.798	44.26014
436.009	46.36803
436.221	115.94096
436.433	37.93663
436.645	4.2148
436.856	44.26014
437.068	-12.64382
437.28	35.82884
437.491	16.85977
437.703	8.4297
437.915	94.85568
438.126	88.53052
438.338	4.2148
438.55	40.04444
438.761	10.53718
438.973	-16.85823
439.184	61.12386
439.396	40.04444
439.608	-10.53658
439.819	-10.53658
440.031	-2.10736
440.242	14.75222
440.454	27.39791
440.665	65.34002
440.877	23.18258
441.088	18.96735
441.3	86.42218
441.511	29.5056
441.723	44.26014
441.934	29.5056
442.146	27.39791
442.357	18.96735
442.569	10.53718
442.78	-8.42931
442.991	-27.39383
443.203	-90.59428
443.414	14.75222
443.626	-10.53658
443.837	37.93663
444.048	40.04444
444.26	-4.2147
444.471	2.10739
444.682	-40.03573
444.894	25.29023
445.105	4.2148
445.316	10.53718
445.528	44.26014
445.739	86.42218
445.95	44.26014
446.161	14.75222
446.373	-14.75104
446.584	23.18258
446.795	80.0973
447.006	-35.82187
447.217	31.61332
447.429	4.2148
447.64	6.32224
447.851	8.4297
448.062	77.98905
448.273	59.01582
448.484	18.96735
448.695	-63.21022
448.907	46.36803
449.118	-56.89021
449.329	-23.17966
449.54	44.26014
449.751	-23.17966
449.962	73.77262
450.173	56.90779
450.384	52.69182
450.595	40.04444
450.806	52.69182
451.017	90.63889
451.228	8.4297
451.439	27.39791
451.65	-56.89021
451.861	61.12386
452.072	18.96735
452.283	-8.42931
452.494	27.39791
452.705	27.39791
452.915	2.10739
453.126	27.39791
453.337	25.29023
453.548	29.5056
453.759	52.69182
453.97	-18.9654
454.181	-2.10736
454.391	-10.53658
454.602	4.2148
454.813	-10.53658
455.024	-44.2495
455.235	16.85977
455.445	-40.03573
455.656	92.74727
455.867	-27.39383
456.078	103.28953
456.288	23.18258
456.499	10.53718
456.71	2.10739
456.921	65.34002
457.131	46.36803
457.342	52.69182
457.553	48.47593
457.763	77.98905
457.974	128.59318
458.184	2.10739
458.395	18.96735
458.606	77.98905
458.816	-12.64382
459.027	14.75222
459.237	-4.2147
459.448	69.55627
459.659	-37.92881
459.869	29.5056
460.08	10.53718
460.29	46.36803
460.501	-6.32202
460.711	25.29023
460.922	44.26014
461.132	52.69182
461.343	46.36803
461.553	65.34002
461.764	-2.10736
461.974	27.39791
462.184	-10.53658
462.395	40.04444
462.605	46.36803
462.816	-6.32202
463.026	111.72373
463.236	92.74727
463.447	-23.17966
463.657	35.82884
463.867	-10.53658
464.078	-16.85823
464.288	44.26014
464.498	37.93663
464.709	-35.82187
464.919	-31.6079
465.129	71.66443
465.339	35.82884
465.55	44.26014
465.76	35.82884
465.97	6.32224
466.18	35.82884
466.391	2.10739
466.601	6.32224
466.811	8.4297
467.021	31.61332
467.231	-50.56997
467.441	71.66443
467.651	44.26014
467.862	-6.32202
468.072	2.10739
468.282	25.29023
468.492	14.75222
468.702	56.90779
468.912	12.64469
469.122	2.10739
469.332	44.26014
469.542	59.01582
469.752	27.39791
469.962	120.15828
470.172	46.36803
470.382	-37.92881
470.592	-23.17966
470.802	23.18258
471.012	52.69182
471.222	12.64469
471.432	84.31387
471.642	94.85568
471.852	31.61332
472.062	77.98905
472.272	-6.32202
472.482	4.2148
472.691	141.24617
472.901	23.18258
473.111	44.26014
473.321	48.47593
473.531	29.5056
473.741	-18.9654
473.95	-27.39383
474.16	59.01582
474.37	86.42218
474.58	46.36803
474.79	27.39791
474.999	46.36803
475.209	-29.50088
475.419	2.10739
475.628	54.79979
475.838	35.82884
476.048	-27.39383
476.258	61.12386
476.467	6.32224
476.677	50.58386
476.886	10.53718
477.096	40.04444
477.306	27.39791
477.515	23.18258
477.725	69.55627
477.935	10.53718
478.144	8.4297
478.354	18.96735
478.563	35.82884
478.773	71.66443
478.982	2.10739
479.192	65.34002
479.401	-18.9654
479.611	90.63889
479.82	46.36803
480.03	46.36803
480.239	14.75222
480.449	46.36803
480.658	82.20557
480.868	44.26014
481.077	31.61332
481.287	44.26014
481.496	77.98905
481.705	92.74727
481.915	12.64469
482.124	21.07496
482.333	-31.6079
482.543	18.96735
482.752	40.04444
482.961	48.47593
483.171	56.90779
483.38	73.77262
483.589	86.42218
483.799	12.64469
484.008	-6.32202
484.217	88.53052
484.426	73.77262
484.636	14.75222
484.845	80.0973
485.054	73.77262
485.263	-42.14263
485.472	67.44814
485.682	73.77262
485.891	2.10739
486.1	61.12386
486.309	-46.35635
486.518	18.96735
486.727	86.42218
486.936	86.42218
487.146	-8.42931
487.355	6.32224
487.564	69.55627
487.773	37.93663
487.982	69.55627
488.191	6.32224
488.4	69.55627
488.609	128.59318
488.818	40.04444
489.027	-12.64382
489.236	77.98905
489.445	29.5056
489.654	56.90779
489.863	67.44814
490.072	61.12386
490.281	6.32224
490.49	88.53052
490.698	-10.53658
490.907	35.82884
491.116	63.23193
491.325	103.28953
491.534	44.26014
491.743	52.69182
491.952	42.15228
492.16	35.82884
492.369	4.2148
492.578	141.24617
492.787	12.64469
492.996	113.83233
493.204	84.31387
493.413	10.53718
493.622	35.82884
493.831	94.85568
494.039	35.82884
494.248	69.55627
494.457	61.12386
494.665	40.04444
494.874	84.31387
495.083	65.34002
495.291	99.07256
495.5	35.82884
495.709	14.75222
495.917	29.5056
496.126	137.02842
496.335	69.55627
496.543	50.58386
496.752	137.02842
496.96	37.93663
497.169	-6.32202
497.377	128.59318
497.586	44.26014
497.794	103.28953
498.003	73.77262
498.211	42.15228
498.42	113.83233
498.628	-10.53658
498.837	105.39804
499.045	-35.82187
499.254	18.96735
499.462	52.69182
499.671	137.02842
499.879	37.93663
500.087	120.15828
500.296	33.72107
500.504	37.93663
500.713	40.04444
500.921	103.28953
501.129	113.83233
501.338	107.50658
501.546	99.07256
501.754	6.32224
501.962	73.77262
502.171	88.53052
502.379	103.28953
502.587	103.28953
502.795	120.15828
503.004	120.15828
503.212	77.98905
503.42	82.20557
503.628	37.93663
503.837	92.74727
504.045	115.94096
504.253	137.02842
504.461	124.37568
504.669	94.85568
504.877	132.81075
505.085	187.64696
505.294	111.72373
505.502	94.85568
505.71	-6.32202
505.918	82.20557
506.126	130.70195
506.334	130.70195
506.542	113.83233
506.75	37.93663
506.958	77.98905
507.166	128.59318
507.374	120.15828
507.582	77.98905
507.79	128.59318
507.998	69.55627
508.206	111.72373
508.414	172.88198
508.622	130.70195
508.83	69.55627
509.037	69.55627
509.245	120.15828
509.453	77.98905
509.661	75.88082
509.869	141.24617
510.077	128.59318
510.285	137.02842
510.492	132.81075
510.7	128.59318
510.908	151.79091
511.116	107.50658
511.324	122.26697
511.531	107.50658
511.739	88.53052
511.947	99.07256
512.155	139.13728
512.362	56.90779
512.57	124.37568
512.778	132.81075
512.985	147.57295
513.193	221.39921
513.401	137.02842
513.608	147.57295
513.816	120.15828
514.024	208.74152
514.231	181.31899
514.439	126.48442
514.646	172.88198
514.854	156.00896
515.061	149.68192
515.269	172.88198
515.477	212.96067
515.684	153.89993
515.892	215.07028
516.099	193.97512
516.307	170.77278
516.514	217.1799
516.722	139.13728
516.929	185.53762
517.136	255.15652
517.344	179.20971
517.551	120.15828
517.759	137.02842
517.966	132.81075
518.173	90.63889
518.381	269.92688
518.588	238.27725
518.796	259.37653
519.003	179.20971
519.21	215.07028
519.418	177.10045
519.625	174.9912
519.832	137.02842
520.039	132.81075
520.247	255.15652
520.454	234.05762
520.661	191.86571
520.868	219.28955
521.076	120.15828
521.283	234.05762
521.49	229.83807
521.697	284.69817
521.904	284.69817
522.112	183.42829
522.319	272.03701
522.526	196.08454
522.733	229.83807
522.94	280.47771
523.147	215.07028
523.354	196.08454
523.561	242.49695
523.768	170.77278
523.975	217.1799
524.183	172.88198
524.39	212.96067
524.597	255.15652
524.804	299.47036
525.011	255.15652
525.218	284.69817
525.425	284.69817
525.632	263.59661
525.838	280.47771
526.045	250.93658
526.252	183.42829
526.459	212.96067
526.666	191.86571
526.873	267.81677
527.08	240.38709
527.287	305.80158
527.494	299.47036
527.701	297.36
527.907	282.58793
528.114	263.59661
528.321	272.03701
528.528	276.25732
528.735	240.38709
528.941	375.45547
529.148	362.78973
529.355	301.58075
529.562	305.80158
529.768	350.12459
529.975	229.83807
530.182	367.01157
530.388	274.14716
530.595	337.46008
530.802	335.34939
531.008	299.47036
531.215	333.23872
531.422	299.47036
531.628	364.90064
531.835	453.574
532.042	369.12252
532.248	364.90064
532.455	350.12459
532.661	381.78858
532.868	356.45708
533.074	424.01305
533.281	459.90888
533.487	428.23586
533.694	415.56764
533.9	419.79031
534.107	320.57505
534.313	502.14492
534.52	390.23295
534.726	329.01742
534.933	424.01305
535.139	419.79031
535.345	453.574
535.552	451.4624
535.758	392.34408
535.965	472.57906
536.171	381.78858
536.377	502.14492
536.584	375.45547
536.79	451.4624
536.996	457.79724
537.203	525.37723
537.409	453.574
537.615	470.46733
537.821	432.45872
538.028	584.52165
538.234	500.03297
538.44	493.69724
538.646	470.46733
538.853	529.60148
539.059	462.02054
539.265	535.93795
539.471	538.05013
539.677	550.72353
539.883	485.24979
540.09	599.30939
540.296	592.97171
540.502	516.92892
540.708	554.94811
540.914	704.95367
541.12	527.48935
541.326	677.48332
541.532	516.92892
541.738	603.53457
541.944	643.67633
542.15	654.24069
542.356	576.0718
542.562	552.83581
542.768	525.37723
542.974	669.03129
543.18	643.67633
543.386	658.46652
543.592	698.61419
543.798	774.69432
544.004	662.69239
544.21	641.5635
544.415	639.45067
544.621	723.97271
544.827	662.69239
545.033	745.10599
545.239	601.42197
545.445	736.65255
545.651	681.7094
545.856	721.85944
546.062	749.33277
546.268	774.69432
546.474	681.7094
546.679	762.01336
546.885	677.48332
547.091	730.31258
547.297	713.40647
547.502	751.44618
547.708	698.61419
547.914	656.3536
548.119	707.06685
548.325	846.55961
548.531	755.67302
548.736	774.69432
548.942	688.04861
549.147	793.71643
549.353	800.0573
549.559	871.92631
549.764	831.76294
549.97	905.75044
550.175	816.96672
550.381	890.95213
550.586	909.9786
550.792	1009.34873
550.997	888.83812
551.203	952.26187
551.408	876.15421
551.614	918.43502
551.819	865.58452
552.025	964.94741
552.23	914.20679
552.435	952.26187
552.641	787.37564
552.846	1060.09644
553.052	954.37611
553.257	1047.4092
553.462	1022.03534
553.668	912.09269
553.873	948.03341
554.078	1144.68274
554.283	916.3209
554.489	1134.10904
554.694	990.31924
554.899	1011.46315
555.105	950.14763
555.31	1136.22377
555.515	1112.96198
555.72	1176.40445
555.925	1049.52372
556.131	1108.73262
556.336	1085.4715
556.541	1153.14177
556.746	1051.63825
556.951	1064.32556
557.156	1121.42075
557.361	1347.71381
557.567	1294.83886
557.772	1184.86372
557.977	1110.84729
558.182	1231.3907
558.387	1138.33851
558.592	1286.37898
558.797	1184.86372
559.002	1153.14177
559.207	1269.45932
559.412	1296.95383
559.617	1303.29877
559.822	1309.64373
560.027	1244.08014
560.232	1339.25374
560.437	1227.16091
560.642	1260.99955
560.847	1305.41376
561.051	1421.74009
561.256	1267.34438
561.461	1421.74009
561.666	1244.08014
561.871	1375.20915
562.076	1453.46586
562.281	1523.26242
562.485	1231.3907
562.69	1430.20029
562.895	1210.24188
563.1	1398.47458
563.305	1345.59879
563.509	1544.41274
563.714	1489.42173
563.919	1472.50133
564.123	1455.58092
564.328	1430.20029
564.533	1489.42173
564.737	1495.76687
564.942	1311.75872
565.147	1622.6677
565.351	1489.42173
565.556	1461.92607
565.761	1474.61638
565.965	1514.80227
566.17	1434.43039
566.374	1472.50133
566.579	1616.32279
566.784	1612.09285
566.988	1457.69597
567.193	1675.54108
567.397	1483.07658
567.602	1514.80227
567.806	1387.89937
568.011	1561.33292
568.215	1459.81102
568.42	1724.18306
568.624	1603.63293
568.828	1785.51167
569.033	1688.23045
569.237	1709.37915
569.442	1506.3421
569.646	1709.37915
569.85	1707.2643
570.055	1802.42933
570.259	1432.31534
570.463	1963.13168
570.668	1796.08524
570.872	1857.40976
571.076	1709.37915
571.281	1857.40976
571.485	1872.21164
571.689	1975.81735
571.893	1629.01258
572.098	1747.446
572.302	1802.42933
572.506	1980.04585
572.71	1703.03457
572.914	1986.38856
573.119	1817.23206
573.323	2054.0405
573.527	1819.34672
573.731	1958.90308
573.935	1901.81463
574.139	2132.25401
574.343	1870.0971
574.547	1956.78876
574.751	1876.4407
574.955	2136.48148
575.159	1984.27433
575.364	2041.35629
575.568	1789.74111
575.772	2100.54706
575.976	2035.01409
576.18	1920.84457
576.383	2123.799
576.587	2089.9777
576.791	1876.4407
576.995	2130.14027
577.199	1982.1601
577.403	2109.00242
577.607	2056.15451
577.811	2227.364
578.015	1990.61701
578.219	2174.52719
578.422	2066.72445
578.626	2043.47034
578.83	2073.06634
579.034	2170.30002
579.238	2174.52719
579.442	2047.69842
579.645	2119.57144
579.849	2299.21318
580.053	2117.45765
580.257	2254.83699
580.46	2225.25063
580.664	2208.34336
580.868	2218.91047
581.071	2290.76089
581.275	2225.25063
581.479	2307.66532
581.682	2111.11624
581.886	2318.23028
582.09	2318.23028
582.293	2303.43927
582.497	2259.06347
582.7	2379.50222
582.904	2406.96619
583.107	2455.55193
