Data from mixed_try1_USB4F045381__1__00023.txt Node

Date: Thu Apr 03 19:31:57 EDT 2025
User: mmckonesweet
Spectrometer: USB4F04538
Trigger mode: 4
Integration Time (sec): 2.700000E-3
Scans to average: 1
Electric dark correction enabled: true
Nonlinearity correction enabled: true
Boxcar width: 0
XAxis mode: Wavelengths
Number of Pixels in Spectrum: 3648
>>>>>Begin Spectral Data<<<<<
345.52	-32.83698
345.736	-32.83698
345.952	-32.83698
346.168	-28.62294
346.384	-41.26476
346.6	-32.83698
346.816	-37.05092
347.032	7.20034
347.248	93.62577
347.464	-62.33245
347.68	-5.44397
347.896	47.24632
348.112	45.13842
348.328	-7.55127
348.544	57.78613
348.76	-24.40881
348.975	-81.29121
349.191	57.78613
349.407	-15.98024
349.623	5.09289
349.839	-7.55127
350.055	32.49155
350.27	26.16843
350.486	-7.55127
350.702	-37.05092
350.918	-32.83698
351.133	7.20034
351.349	9.30781
351.565	5.09289
351.781	24.06077
351.996	5.09289
352.212	-49.69214
352.428	43.03055
352.644	-11.7658
352.859	-39.15785
353.075	-53.90568
353.291	-37.05092
353.506	36.70708
353.722	51.46218
353.938	-5.44397
354.153	38.81488
354.369	-32.83698
354.584	36.70708
354.8	36.70708
355.016	15.63036
355.231	-26.51589
355.447	-53.90568
355.662	-56.01241
355.878	-43.37164
356.093	-20.19457
356.309	-32.83698
356.524	-32.83698
356.74	-37.05092
356.955	9.30781
357.171	13.52282
357.386	24.06077
357.602	-24.40881
357.817	-37.05092
358.033	-18.08741
358.248	-7.55127
358.464	-24.40881
358.679	9.30781
358.895	-13.87303
359.11	-20.19457
359.325	-15.98024
359.541	5.09289
359.756	-5.44397
359.972	19.84552
360.187	19.84552
360.402	-45.4785
360.618	21.95313
360.833	43.03055
361.048	34.5993
361.264	51.46218
361.479	-32.83698
361.694	-37.05092
361.909	53.57014
362.125	-51.79892
362.34	-43.37164
362.555	-22.3017
362.77	55.67812
362.986	-28.62294
363.201	-64.43909
363.416	57.78613
363.631	21.95313
363.847	51.46218
364.062	-41.26476
364.277	21.95313
364.492	-11.7658
364.707	-18.08741
364.922	-34.94396
365.138	47.24632
365.353	-68.65227
365.568	-9.65855
365.783	-43.37164
365.998	7.20034
366.213	-20.19457
366.428	-3.33665
366.643	38.81488
366.858	-62.33245
367.073	43.03055
367.288	5.09289
367.503	47.24632
367.718	-28.62294
367.933	28.27611
368.148	59.89417
368.363	-11.7658
368.578	-5.44397
368.793	-15.98024
369.008	-39.15785
369.223	-18.08741
369.438	32.49155
369.653	19.84552
369.868	17.73793
370.083	-3.33665
370.298	47.24632
370.513	-28.62294
370.728	5.09289
370.943	13.52282
371.157	-7.55127
371.372	5.09289
371.587	-28.62294
371.802	49.35423
372.017	-15.98024
372.232	-51.79892
372.446	-34.94396
372.661	-34.94396
372.876	9.30781
373.091	-1.2293
373.306	-22.3017
373.52	64.1103
373.735	-1.2293
373.95	-49.69214
374.165	-53.90568
374.379	15.63036
374.594	-70.75882
374.809	-34.94396
375.023	-62.33245
375.238	-53.90568
375.453	17.73793
375.667	24.06077
375.882	5.09289
376.097	-5.44397
376.311	15.63036
376.526	40.92271
376.741	-32.83698
376.955	-32.83698
377.17	-87.61033
377.384	89.40901
377.599	-9.65855
377.813	7.20034
378.028	40.92271
378.242	-81.29121
378.457	53.57014
378.672	-47.58533
378.886	0.87808
379.101	-47.58533
379.315	57.78613
379.53	13.52282
379.744	-20.19457
379.958	24.06077
380.173	-43.37164
380.387	-20.19457
380.602	47.24632
380.816	-3.33665
381.031	-70.75882
381.245	-9.65855
381.459	-70.75882
381.674	-41.26476
381.888	-18.08741
382.103	-53.90568
382.317	64.1103
382.531	38.81488
382.746	-11.7658
382.96	-9.65855
383.174	-51.79892
383.388	-20.19457
383.603	-18.08741
383.817	-22.3017
384.031	-45.4785
384.246	5.09289
384.46	-28.62294
384.674	95.73419
384.888	-43.37164
385.103	36.70708
385.317	-11.7658
385.531	-37.05092
385.745	76.75925
385.959	-24.40881
386.174	-18.08741
386.388	0.87808
386.602	15.63036
386.816	45.13842
387.03	34.5993
387.244	-41.26476
387.458	-7.55127
387.672	-15.98024
387.887	-9.65855
388.101	-3.33665
388.315	19.84552
388.529	45.13842
388.743	-15.98024
388.957	0.87808
389.171	17.73793
389.385	-20.19457
389.599	45.13842
389.813	32.49155
390.027	64.1103
390.241	32.49155
390.455	-11.7658
390.669	43.03055
390.883	7.20034
391.097	-45.4785
391.311	24.06077
391.525	5.09289
391.738	74.65103
391.952	9.30781
392.166	-20.19457
392.38	-3.33665
392.594	13.52282
392.808	-18.08741
393.022	-51.79892
393.236	-53.90568
393.449	-28.62294
393.663	-15.98024
393.877	-3.33665
394.091	57.78613
394.305	-7.55127
394.518	34.5993
394.732	13.52282
394.946	13.52282
395.16	-3.33665
395.373	-32.83698
395.587	-32.83698
395.801	-34.94396
396.015	21.95313
396.228	-20.19457
396.442	45.13842
396.656	47.24632
396.869	-58.11912
397.083	-15.98024
397.297	68.32652
397.51	-20.19457
397.724	15.63036
397.938	-3.33665
398.151	62.00222
398.365	-26.51589
398.578	-26.51589
398.792	-49.69214
399.005	7.20034
399.219	72.54284
399.433	-60.2258
399.646	21.95313
399.86	-1.2293
400.073	13.52282
400.287	62.00222
400.5	21.95313
400.714	43.03055
400.927	-37.05092
401.141	9.30781
401.354	64.1103
401.567	-15.98024
401.781	-37.05092
401.994	-7.55127
402.208	-9.65855
402.421	-34.94396
402.635	-7.55127
402.848	5.09289
403.061	32.49155
403.275	80.97574
403.488	21.95313
403.701	9.30781
403.915	34.5993
404.128	21.95313
404.341	13.52282
404.555	-37.05092
404.768	36.70708
404.981	47.24632
405.195	-11.7658
405.408	30.38382
405.621	-20.19457
405.834	59.89417
406.048	-1.2293
406.261	-3.33665
406.474	26.16843
406.687	17.73793
406.9	32.49155
407.114	55.67812
407.327	76.75925
407.54	32.49155
407.753	0.87808
407.966	-34.94396
408.179	80.97574
408.392	17.73793
408.605	9.30781
408.819	59.89417
409.032	55.67812
409.245	21.95313
409.458	97.84262
409.671	-3.33665
409.884	5.09289
410.097	38.81488
410.31	2.98547
410.523	76.75925
410.736	49.35423
410.949	17.73793
411.162	68.32652
411.375	89.40901
411.588	32.49155
411.801	-1.2293
412.014	49.35423
412.227	40.92271
412.44	64.1103
412.653	-37.05092
412.865	-32.83698
413.078	43.03055
413.291	21.95313
413.504	7.20034
413.717	5.09289
413.93	7.20034
414.143	59.89417
414.356	123.1456
414.568	9.30781
414.781	30.38382
414.994	-1.2293
415.207	118.92822
415.42	-26.51589
415.632	-1.2293
415.845	30.38382
416.058	36.70708
416.271	-24.40881
416.483	64.1103
416.696	-9.65855
416.909	26.16843
417.121	93.62577
417.334	64.1103
417.547	9.30781
417.759	43.03055
417.972	49.35423
418.185	72.54284
418.397	-7.55127
418.61	72.54284
418.823	34.5993
419.035	118.92822
419.248	59.89417
419.46	49.35423
419.673	59.89417
419.885	66.2184
420.098	13.52282
420.311	28.27611
420.523	91.51738
420.736	-37.05092
420.948	89.40901
421.161	0.87808
421.373	85.19233
421.586	57.78613
421.798	129.47183
422.01	80.97574
422.223	91.51738
422.435	89.40901
422.648	15.63036
422.86	89.40901
423.073	133.68943
423.285	74.65103
423.497	110.49372
423.71	83.08402
423.922	99.95108
424.134	163.21498
424.347	106.2766
424.559	-9.65855
424.771	93.62577
424.984	51.46218
425.196	53.57014
425.408	140.01598
425.621	26.16843
425.833	131.58062
426.045	93.62577
426.257	97.84262
426.47	144.23379
426.682	158.99679
426.894	108.38515
427.106	123.1456
427.318	112.60231
427.531	89.40901
427.743	83.08402
427.955	152.66967
428.167	182.19786
428.379	161.10588
428.591	133.68943
428.804	72.54284
429.016	203.2919
429.228	201.1824
429.44	74.65103
429.652	85.19233
429.864	131.58062
430.076	194.85404
430.288	133.68943
430.5	140.01598
430.712	142.12488
430.924	140.01598
431.136	91.51738
431.348	205.40141
431.56	165.32411
431.772	188.52586
431.984	161.10588
432.196	184.30718
432.408	224.38794
432.62	186.41651
432.832	152.66967
433.044	239.15634
433.256	209.6205
433.468	192.74463
433.679	224.38794
433.891	283.46719
434.103	161.10588
434.315	266.58589
434.527	234.9367
434.739	192.74463
434.95	253.9257
435.162	194.85404
435.374	258.14568
435.586	222.27825
435.798	218.05892
436.009	287.68771
436.221	279.24676
436.433	224.38794
436.645	351.00409
436.856	199.07293
437.068	165.32411
437.28	258.14568
437.491	232.82691
437.703	365.78019
437.915	275.02639
438.126	327.78622
438.338	239.15634
438.55	308.79138
438.761	253.9257
438.973	367.89113
439.184	239.15634
439.396	469.23549
439.608	302.46008
439.819	363.66927
440.031	268.69598
440.242	325.67561
440.454	310.90184
440.665	422.78141
440.877	372.11307
441.088	344.67174
441.3	340.45025
441.511	351.00409
441.723	386.89035
441.934	275.02639
442.146	365.78019
442.357	427.0042
442.569	435.44996
442.78	403.77968
442.991	351.00409
443.203	414.33604
443.414	427.0042
443.626	498.80101
443.837	416.44736
444.048	448.11907
444.26	435.44996
444.471	465.01208
444.682	494.57719
444.894	422.78141
445.105	513.58486
445.316	522.03308
445.528	462.9004
445.739	532.59368
445.95	494.57719
446.161	503.0249
446.373	519.921
446.584	536.81802
446.795	585.40185
447.006	589.62687
447.217	486.12972
447.429	500.91295
447.64	653.00817
447.851	536.81802
448.062	467.12378
448.273	534.70585
448.484	564.27757
448.695	598.07705
448.907	570.61472
449.118	648.7824
449.329	507.24884
449.54	646.66954
449.751	545.26687
449.962	570.61472
450.173	494.57719
450.384	667.79872
450.595	714.28698
450.806	807.27896
451.017	627.6543
451.228	688.92907
451.439	807.27896
451.65	682.58984
451.861	720.6267
452.072	762.89398
452.283	883.37696
452.494	934.11494
452.705	887.60495
452.915	870.69318
453.126	934.11494
453.337	946.80011
453.548	881.26297
453.759	896.06103
453.97	893.947
454.181	879.149
454.391	862.23749
454.602	967.94264
454.813	976.39985
455.024	1213.23794
455.235	1052.51931
455.445	1020.80191
455.656	1058.86295
455.867	1094.81112
456.078	984.85717
456.288	1025.03082
456.499	1181.51525
456.71	1147.67864
456.921	1151.90816
457.131	1314.75496
457.342	1111.72841
457.553	1149.7934
457.763	1283.03028
457.974	1348.59506
458.184	1213.23794
458.395	1359.17017
458.606	1215.35281
458.816	1361.2852
459.027	1441.65682
459.237	1380.32048
459.448	1536.83389
459.659	1352.8251
459.869	1623.54893
460.08	1570.67422
460.29	1680.65209
460.501	1758.90108
460.711	1763.13062
460.922	1657.38806
461.132	1697.57116
461.343	1659.50299
461.553	1805.42514
461.764	1794.85166
461.974	1695.45629
462.184	1727.17907
462.395	1957.66973
462.605	2131.021
462.816	1906.92457
463.026	2025.3245
463.236	1839.25952
463.447	2086.6307
463.657	2171.18068
463.867	2528.24367
464.078	2272.62317
464.288	2245.15117
464.498	2388.83312
464.709	2363.48077
464.919	2340.23984
465.129	2431.08373
465.339	2418.40899
465.55	2450.09512
465.76	2521.90787
465.97	2540.91494
466.18	2600.04195
466.391	3013.64399
466.601	2686.6035
466.811	2984.11908
467.021	3017.86159
467.231	3159.11516
467.441	2796.3577
467.651	3306.61568
467.862	2914.51304
468.072	3237.08991
468.282	3352.95586
468.492	3089.55135
468.702	3308.72223
468.912	3552.96292
469.122	3605.56903
469.332	3601.36097
469.542	3428.76703
469.752	3750.70062
469.962	3874.7254
470.172	4179.23316
470.382	3998.68066
470.592	4002.8813
470.802	4040.68331
471.012	4365.91952
471.222	4254.76716
471.432	4315.59387
471.642	4244.27798
471.852	4592.22906
472.062	4477.01091
472.272	4715.75171
472.482	4590.13478
472.691	5037.7946
472.901	4585.94616
473.111	4788.99079
473.321	4983.46187
473.531	5129.70666
473.741	5058.68764
473.95	5115.08729
474.16	5115.08729
474.37	5459.38245
474.58	5350.94609
474.79	5638.57988
474.999	5555.25391
475.209	5392.6599
475.419	5721.86811
475.628	6017.2364
475.838	5748.92866
476.048	5925.76469
476.258	6123.20337
476.467	6627.26877
476.677	6538.17203
476.886	6697.68718
477.096	6627.26877
477.306	6842.58282
477.515	6496.71711
477.725	6718.39342
477.935	6817.75151
478.144	6881.89236
478.354	6834.30608
478.563	7119.64445
478.773	7200.2062
478.982	7148.56795
479.192	7427.2509
479.401	7491.18856
479.611	7693.17841
479.82	7802.33306
480.03	7705.5385
480.239	7909.37125
480.449	7794.09703
480.658	8139.72685
480.868	8363.67121
481.077	8375.99166
481.287	8191.11098
481.496	8720.68577
481.705	8704.28376
481.915	8862.10464
482.124	8851.8598
482.333	9023.9141
482.543	8941.99909
482.752	9246.99177
482.961	9146.73432
483.171	9300.17319
483.38	9140.59478
483.589	9230.62598
483.799	9416.72406
484.008	9467.82613
484.217	9631.28567
484.426	9890.5744
484.636	9641.49855
484.845	10141.46992
485.054	10059.90158
485.263	10249.51375
485.472	10088.45306
485.682	10373.819
485.891	10453.2671
486.1	10377.89374
486.309	10852.25585
486.518	10903.11422
486.727	10827.84127
486.936	10646.71326
487.146	11012.94406
487.355	10791.21625
487.564	11078.01312
487.773	11405.22755
487.982	11218.28073
488.191	11543.35202
488.4	11364.59417
488.609	11557.56823
488.818	11653.00816
489.027	11841.79931
489.236	12209.02702
489.445	12286.09292
489.654	12300.28814
489.863	12168.4618
490.072	12054.86322
490.281	12428.0299
490.49	12300.28814
490.698	12413.8377
490.907	12353.01026
491.116	12819.20758
491.325	12798.94472
491.534	13044.08938
491.743	13033.96093
491.952	12809.07622
492.16	13098.78093
492.369	13410.66217
492.578	13149.41815
492.787	13337.76393
492.996	13305.36302
493.204	13509.87664
493.413	13459.25816
493.622	13740.66904
493.831	13783.17882
494.039	13716.37713
494.248	13989.637
494.457	13930.94097
494.665	13991.66096
494.874	14005.82864
495.083	14048.33094
495.291	14485.44504
495.5	14525.91465
495.709	14635.18015
495.917	14473.30405
496.126	14657.43754
496.335	14750.51265
496.543	14983.1938
496.752	14560.31342
496.96	14928.56495
497.169	15100.54392
497.377	15047.93879
497.586	15151.1257
497.794	15128.86973
498.003	15043.89224
498.211	15203.73074
498.42	15347.38341
498.628	15616.48476
498.837	15391.89578
499.045	15533.52757
499.254	15772.28622
499.462	15810.73164
499.671	15964.51755
499.879	16199.2589
500.087	16108.19299
500.296	16183.06916
500.504	16379.3774
500.713	16156.76106
500.921	16444.14276
501.129	16274.13788
501.338	16102.12204
501.546	16638.45165
501.754	16041.41335
501.962	16569.63163
502.171	16648.57245
502.379	16950.2001
502.587	16672.86263
502.795	16859.09869
503.004	16541.29472
503.212	16970.44557
503.42	16982.59299
503.628	17201.26328
503.837	16978.54384
504.045	16915.78339
504.253	17104.07247
504.461	17561.73905
504.669	17626.55422
504.877	17557.68821
505.085	17444.26993
505.294	17673.14219
505.502	17243.78634
505.71	17934.47295
505.918	17482.75002
506.126	18029.70083
506.334	17766.3234
506.542	18167.49134
506.75	17626.55422
506.958	18159.38555
507.166	17713.65489
507.374	18210.04769
507.582	18317.45907
507.79	18301.24536
507.998	18570.82975
508.206	18619.48379
508.414	18485.69054
508.622	18619.48379
508.83	18323.53927
509.037	18629.62033
509.245	18291.11191
509.453	19112.23433
509.661	19077.75435
509.869	19008.79791
510.077	18933.76239
510.285	19047.33182
510.492	18627.59302
510.7	19018.93827
510.908	18915.51134
511.116	18907.39987
511.324	18974.32145
511.531	19248.13752
511.739	18958.09763
511.947	18962.15356
512.155	19093.98008
512.362	19424.63639
512.57	19505.79581
512.778	19503.76675
512.985	19629.57676
513.193	19440.86774
513.401	19802.08436
513.608	19860.94683
513.816	19465.21527
514.024	19544.34887
514.231	19499.70862
514.439	19791.93602
514.646	19848.7681
514.854	20112.67449
515.061	19653.92894
515.269	19976.65232
515.477	19881.24505
515.684	20025.37451
515.892	19818.32193
516.099	20425.39401
516.307	20141.09942
516.514	20557.41587
516.722	20602.10419
516.929	20555.38463
517.136	20461.95214
517.344	20269.02179
517.551	20323.85077
517.759	20980.00402
517.966	20709.77071
518.173	20652.88883
518.381	20896.69123
518.588	20711.80227
518.796	20980.00402
519.003	20937.33075
519.21	20732.11806
519.418	21378.37462
519.625	21559.31844
519.832	21581.68446
520.039	21305.19285
520.247	21063.32372
520.454	21467.82605
520.661	21848.07991
520.868	21018.61473
521.076	21778.93269
521.283	21532.88648
521.49	21844.0123
521.697	21978.25143
521.904	21898.92629
522.112	21724.02485
522.319	21882.65519
522.526	21538.9861
522.733	22482.81121
522.94	21923.33341
523.147	22006.72853
523.354	21915.19764
523.561	22279.33236
523.768	21925.36736
523.975	22293.57469
524.183	22513.33615
524.39	22372.92811
524.597	23044.59625
524.804	22527.5814
525.011	22602.88063
525.218	22743.3164
525.425	22606.95099
525.632	22578.45873
525.838	22794.20301
526.045	22718.89159
526.252	22668.00818
526.459	23356.13094
526.666	23020.16539
526.873	23592.37675
527.08	23474.24862
527.287	23502.76136
527.494	23323.54861
527.701	23785.88446
527.907	23618.85515
528.114	23462.02907
528.321	23612.7447
528.528	23506.83466
528.735	23763.47693
528.941	23745.14376
529.148	23266.53151
529.355	23885.70413
529.562	23730.8848
529.768	24319.69291
529.975	23916.26256
530.182	23981.45603
530.388	24252.44707
530.595	24172.97849
530.802	23869.40657
531.008	24270.78656
531.215	24476.61101
531.422	24556.09484
531.628	24568.32347
531.835	24456.23116
532.042	24806.79945
532.248	24743.61025
532.455	24755.84024
532.661	24914.83789
532.868	24823.10671
533.074	24943.37745
533.281	25516.29921
533.487	25130.93426
533.694	24898.52978
533.9	25856.86725
534.107	25137.05057
534.313	25243.06964
534.52	25440.85149
534.726	25585.63199
534.933	25436.77332
535.139	25659.04568
535.345	25555.04372
535.552	25726.34378
535.758	25438.8124
535.965	25530.57342
536.171	25744.69817
536.377	25728.38315
536.584	25991.47755
536.79	25905.81552
536.996	26258.68153
537.203	26205.64632
537.409	25457.16428
537.615	25930.29006
537.821	26003.71524
538.028	26729.9271
538.234	26395.35438
538.44	26305.59824
538.646	26083.2618
538.853	26438.19365
539.059	26695.24386
539.265	26656.48075
539.471	26954.35831
539.677	26911.51101
539.883	27189.00918
540.09	26705.44477
540.296	26650.36031
540.502	27048.21648
540.708	27027.81228
540.914	27474.69482
541.12	26997.20624
541.326	27488.97976
541.532	27346.13316
541.738	27501.22404
541.944	27619.58772
542.15	27686.9344
542.356	27470.61342
542.562	27378.78326
542.768	27337.97068
542.974	27558.36461
543.18	27780.81376
543.386	28019.60499
543.592	28184.93108
543.798	28466.61431
544.004	28033.89214
544.21	28342.09962
544.415	28080.83603
544.621	28329.85249
544.827	27835.91803
545.033	28207.38334
545.239	28419.66568
545.445	29309.74275
545.651	28533.97636
545.856	29009.62584
546.062	28774.85614
546.268	28484.98566
546.474	28295.1525
546.679	28095.12341
546.885	28419.66568
547.091	28303.31717
547.297	28307.39952
547.502	28468.65556
547.708	28613.58756
547.914	28770.77331
548.119	28709.53137
548.325	28729.94525
548.531	28497.23328
548.736	28907.55037
548.942	28758.52485
549.147	28987.16901
549.353	29444.49646
549.559	29448.57997
549.764	29352.61843
549.97	29097.41282
550.175	29201.53474
550.381	29648.67752
550.586	29076.99707
550.792	29789.56873
550.997	29515.95862
551.203	29524.1258
551.408	30230.65382
551.614	29832.4497
551.819	30010.10464
552.025	30087.70374
552.23	29816.11403
552.435	30091.78795
552.641	30377.69427
552.846	30463.47078
553.052	30175.51525
553.257	30426.70915
553.462	29973.34775
553.668	30526.78343
553.873	30410.37078
554.078	30522.6987
554.283	30618.69106
554.489	31078.26996
554.694	30510.44456
554.899	30583.97009
555.105	31004.73257
555.31	30939.36757
555.515	30586.01249
555.72	30663.62463
555.925	30447.13223
556.131	30790.25905
556.336	31035.37292
556.541	31300.93662
556.746	31080.31269
556.951	30755.5362
557.156	30970.00724
557.361	31172.23718
557.567	31182.4512
557.772	31456.20141
557.977	31008.81793
558.182	31631.90726
558.387	31856.66614
558.592	31627.82093
558.797	31597.17371
559.002	31468.45955
559.207	31607.38941
559.412	31954.74971
559.617	31842.36264
559.822	32089.62188
560.027	31944.53247
560.232	31691.15977
560.437	31909.7942
560.642	32001.74965
560.847	31836.2326
561.051	31574.69933
561.256	31793.32278
561.461	31846.44935
561.666	32065.09903
561.871	31644.16628
562.076	31991.53218
562.281	31864.8396
562.485	31854.62277
562.69	32018.09769
562.895	31531.79425
563.1	32126.4067
563.305	32202.022
563.509	32116.18862
563.714	32676.21802
563.919	32263.3338
564.123	32334.86663
564.328	32249.02754
564.533	32459.54452
564.737	32246.9838
564.942	32584.23079
565.147	32688.48335
565.351	32995.14572
565.556	32224.50278
565.761	32473.85235
565.965	32637.37838
566.17	32465.67644
566.374	33064.66397
566.579	33432.75552
566.784	32665.99698
566.988	33033.99377
567.193	33152.5886
567.397	32888.82962
567.602	33402.07763
567.806	32960.38776
568.011	33404.1228
568.215	33136.23014
568.42	32831.58537
568.624	33074.8875
568.828	33342.76894
569.033	32852.02952
569.237	33336.6337
