Data from mixed_try1_USB4F045381__18__00083.txt Node

Date: Thu Apr 03 19:52:58 EDT 2025
User: mmckonesweet
Spectrometer: USB4F04538
Trigger mode: 4
Integration Time (sec): 2.700000E-3
Scans to average: 1
Electric dark correction enabled: true
Nonlinearity correction enabled: true
Boxcar width: 0
XAxis mode: Wavelengths
Number of Pixels in Spectrum: 3648
>>>>>Begin Spectral Data<<<<<
345.52	-42.49378
345.736	-42.49378
345.952	-42.49378
346.168	-12.99502
346.384	-6.67324
346.6	18.61609
346.816	-25.63794
347.032	-38.27997
347.248	27.04663
347.464	-19.31659
347.68	-53.02787
347.896	12.29343
348.112	27.04663
348.328	-8.78052
348.544	-2.45859
348.76	41.80097
348.975	20.72369
349.191	-17.20943
349.407	43.90883
349.623	-59.34802
349.839	-25.63794
350.055	-34.06606
350.27	-48.81431
350.486	-8.78052
350.702	-50.9211
350.918	-8.78052
351.133	62.88058
351.349	27.04663
351.565	-8.78052
351.781	-67.77453
351.996	-27.74501
352.212	-21.42373
352.428	-23.53085
352.644	-8.78052
352.859	67.09678
353.075	-84.62633
353.291	-21.42373
353.506	-12.99502
353.722	-36.17303
353.938	33.36978
354.153	8.07845
354.369	-57.24133
354.584	79.74592
354.8	-15.10224
355.016	10.18593
355.231	-23.53085
355.447	-59.34802
355.662	-65.66794
355.878	5.97099
356.093	24.93896
356.309	-2.45859
356.524	29.15432
356.74	46.01671
356.955	-8.78052
357.171	10.18593
357.386	50.23254
357.602	-8.78052
357.817	18.61609
358.033	-50.9211
358.248	-21.42373
358.464	67.09678
358.679	-25.63794
358.895	-63.56133
359.11	-4.56592
359.325	-50.9211
359.541	12.29343
359.756	-67.77453
359.972	-48.81431
360.187	12.29343
360.402	8.07845
360.618	-31.95906
360.833	-8.78052
361.048	8.07845
361.264	-34.06606
361.479	-53.02787
361.694	12.29343
361.909	-17.20943
362.125	43.90883
362.34	16.50851
362.555	-74.09415
362.77	-12.99502
362.986	-8.78052
363.201	-109.90091
363.416	-38.27997
363.631	24.93896
363.847	-17.20943
364.062	-48.81431
364.277	16.50851
364.492	3.86356
364.707	18.61609
364.922	-90.94533
365.138	-25.63794
365.353	-42.49378
365.568	1.75615
365.783	5.97099
365.998	-53.02787
366.213	16.50851
366.428	3.86356
366.643	102.93811
366.858	-2.45859
367.073	10.18593
367.288	-23.53085
367.503	-55.13461
367.718	-25.63794
367.933	8.07845
368.148	-61.45468
368.363	-40.38689
368.578	-38.27997
368.793	-8.78052
369.008	67.09678
369.223	12.29343
369.438	-38.27997
369.653	56.55646
369.868	-95.15786
370.083	-25.63794
370.298	-23.53085
370.513	-21.42373
370.728	-38.27997
370.943	35.47754
371.157	-34.06606
371.372	-48.81431
371.587	-25.63794
371.802	96.6127
372.017	-29.85205
372.232	-4.56592
372.446	69.20492
372.661	-46.70749
372.876	-42.49378
373.091	33.36978
373.306	-31.95906
373.52	-29.85205
373.735	-6.67324
373.95	14.40096
374.165	-12.99502
374.379	-6.67324
374.594	8.07845
374.809	-23.53085
375.023	-59.34802
375.238	-50.9211
375.453	-8.78052
375.667	-25.63794
375.882	-44.60065
376.097	29.15432
376.311	56.55646
376.526	-12.99502
376.741	3.86356
376.955	73.42125
377.17	-50.9211
377.384	75.52945
377.599	24.93896
377.813	-34.06606
378.028	-25.63794
378.242	-8.78052
378.457	-38.27997
378.672	-29.85205
378.886	58.66448
379.101	-4.56592
379.315	-23.53085
379.53	1.75615
379.744	-12.99502
379.958	-25.63794
380.173	-6.67324
380.387	12.29343
380.602	-80.41353
380.816	-8.78052
381.031	8.07845
381.245	41.80097
381.459	-27.74501
381.674	-21.42373
381.888	-34.06606
382.103	75.52945
382.317	52.34049
382.531	8.07845
382.746	8.07845
382.96	8.07845
383.174	-4.56592
383.388	8.07845
383.603	-27.74501
383.817	35.47754
384.031	-80.41353
384.246	43.90883
384.46	12.29343
384.674	8.07845
384.888	8.07845
385.103	-57.24133
385.317	-63.56133
385.531	-0.35123
385.745	71.31307
385.959	-6.67324
386.174	-0.35123
386.388	-17.20943
386.602	-0.35123
386.816	-31.95906
387.03	-65.66794
387.244	-25.63794
387.458	35.47754
387.672	-42.49378
387.887	20.72369
388.101	-10.88778
388.315	14.40096
388.529	-8.78052
388.743	33.36978
388.957	-2.45859
389.171	-23.53085
389.385	22.83131
389.599	-2.45859
389.813	-34.06606
390.027	-25.63794
390.241	8.07845
390.455	3.86356
390.669	16.50851
390.883	-50.9211
391.097	-63.56133
391.311	-42.49378
391.525	-4.56592
391.738	-36.17303
391.952	12.29343
392.166	-67.77453
392.38	-4.56592
392.594	14.40096
392.808	14.40096
393.022	-59.34802
393.236	14.40096
393.449	-15.10224
393.663	10.18593
393.877	-74.09415
394.091	50.23254
394.305	-8.78052
394.518	3.86356
394.732	-0.35123
394.946	60.77252
395.16	-25.63794
395.373	8.07845
395.587	-67.77453
395.801	54.44846
396.015	-23.53085
396.228	18.61609
396.442	-0.35123
396.656	60.77252
396.869	52.34049
397.083	-8.78052
397.297	-27.74501
397.51	27.04663
397.724	43.90883
397.938	-19.31659
398.151	24.93896
398.365	79.74592
398.578	-34.06606
398.792	-38.27997
399.005	-31.95906
399.219	-17.20943
399.433	-65.66794
399.646	-80.41353
399.86	-40.38689
400.073	-21.42373
400.287	-48.81431
400.5	-50.9211
400.714	-17.20943
400.927	-4.56592
401.141	-34.06606
401.354	-12.99502
401.567	50.23254
401.781	92.39587
401.994	8.07845
402.208	35.47754
402.421	27.04663
402.635	-21.42373
402.848	37.58533
403.061	29.15432
403.275	8.07845
403.488	-55.13461
403.701	33.36978
403.915	-6.67324
404.128	-12.99502
404.341	-31.95906
404.555	-38.27997
404.768	8.07845
404.981	-21.42373
405.195	41.80097
405.408	75.52945
405.621	-59.34802
405.834	35.47754
406.048	24.93896
406.261	-50.9211
406.474	-27.74501
406.687	-12.99502
406.9	-46.70749
407.114	22.83131
407.327	18.61609
407.54	-67.77453
407.753	37.58533
407.966	3.86356
408.179	-84.62633
408.392	-4.56592
408.605	-23.53085
408.819	1.75615
409.032	18.61609
409.245	-42.49378
409.458	46.01671
409.671	12.29343
409.884	12.29343
410.097	-46.70749
410.31	-17.20943
410.523	8.07845
410.736	-59.34802
410.949	-59.34802
411.162	-15.10224
411.375	35.47754
411.588	29.15432
411.801	48.12461
412.014	-2.45859
412.227	-59.34802
412.44	12.29343
412.653	-31.95906
412.865	-4.56592
413.078	3.86356
413.291	-21.42373
413.504	-8.78052
413.717	-15.10224
413.93	12.29343
414.143	-4.56592
414.356	-8.78052
414.568	-4.56592
414.781	50.23254
414.994	-31.95906
415.207	-42.49378
415.42	50.23254
415.632	-34.06606
415.845	50.23254
416.058	-17.20943
416.271	20.72369
416.483	-15.10224
416.696	50.23254
416.909	-29.85205
417.121	24.93896
417.334	8.07845
417.547	60.77252
417.759	27.04663
417.972	20.72369
418.185	3.86356
418.397	16.50851
418.61	24.93896
418.823	-19.31659
419.035	-17.20943
419.248	39.69314
419.46	16.50851
419.673	-74.09415
419.885	-17.20943
420.098	-76.20064
420.311	-2.45859
420.523	43.90883
420.736	-76.20064
420.948	20.72369
421.161	33.36978
421.373	22.83131
421.586	-0.35123
421.798	-8.78052
422.01	-4.56592
422.223	-0.35123
422.435	-55.13461
422.648	18.61609
422.86	-2.45859
423.073	16.50851
423.285	8.07845
423.497	-50.9211
423.71	-25.63794
423.922	-40.38689
424.134	-19.31659
424.347	16.50851
424.559	-23.53085
424.771	24.93896
424.984	-31.95906
425.196	24.93896
425.408	-50.9211
425.621	1.75615
425.833	-8.78052
426.045	41.80097
426.257	27.04663
426.47	-4.56592
426.682	37.58533
426.894	3.86356
427.106	-59.34802
427.318	33.36978
427.531	60.77252
427.743	-23.53085
427.955	50.23254
428.167	71.31307
428.379	8.07845
428.591	-6.67324
428.804	24.93896
429.016	67.09678
429.228	8.07845
429.44	69.20492
429.652	10.18593
429.864	35.47754
430.076	35.47754
430.288	67.09678
430.5	-34.06606
430.712	24.93896
430.924	-29.85205
431.136	8.07845
431.348	-25.63794
431.56	-74.09415
431.772	41.80097
431.984	33.36978
432.196	8.07845
432.408	-29.85205
432.62	8.07845
432.832	33.36978
433.044	-57.24133
433.256	-17.20943
433.468	-0.35123
433.679	69.20492
433.891	8.07845
434.103	10.18593
434.315	10.18593
434.527	-69.8811
434.739	-0.35123
434.95	-21.42373
435.162	-19.31659
435.374	-0.35123
435.586	1.75615
435.798	33.36978
436.009	-6.67324
436.221	16.50851
436.433	-6.67324
436.645	27.04663
436.856	-25.63794
437.068	-17.20943
437.28	-59.34802
437.491	58.66448
437.703	39.69314
437.915	-4.56592
438.126	-38.27997
438.338	16.50851
438.55	-38.27997
438.761	31.26204
438.973	67.09678
439.184	3.86356
439.396	-15.10224
439.608	18.61609
439.819	-12.99502
440.031	60.77252
440.242	-25.63794
440.454	75.52945
440.665	-4.56592
440.877	12.29343
441.088	-42.49378
441.3	-25.63794
441.511	-25.63794
441.723	46.01671
441.934	69.20492
442.146	43.90883
442.357	33.36978
442.569	33.36978
442.78	18.61609
442.991	18.61609
443.203	16.50851
443.414	-12.99502
443.626	-59.34802
443.837	16.50851
444.048	-19.31659
444.26	33.36978
444.471	-48.81431
444.682	-10.88778
444.894	-50.9211
445.105	12.29343
445.316	-25.63794
445.528	37.58533
445.739	-42.49378
445.95	-8.78052
446.161	-25.63794
446.373	18.61609
446.584	46.01671
446.795	54.44846
447.006	1.75615
447.217	35.47754
447.429	-2.45859
447.64	48.12461
447.851	24.93896
448.062	-8.78052
448.273	5.97099
448.484	24.93896
448.695	-0.35123
448.907	33.36978
449.118	-31.95906
449.329	-17.20943
449.54	-15.10224
449.751	20.72369
449.962	43.90883
450.173	-29.85205
450.384	1.75615
450.595	-23.53085
450.806	-8.78052
451.017	37.58533
451.228	16.50851
451.439	-34.06606
451.65	14.40096
451.861	24.93896
452.072	3.86356
452.283	-50.9211
452.494	-4.56592
452.705	48.12461
452.915	1.75615
453.126	27.04663
453.337	-25.63794
453.548	1.75615
453.759	24.93896
453.97	52.34049
454.181	-15.10224
454.391	-71.98763
454.602	-12.99502
454.813	43.90883
455.024	8.07845
455.235	29.15432
455.445	-42.49378
455.656	48.12461
455.867	107.15516
456.078	1.75615
456.288	75.52945
456.499	10.18593
456.71	16.50851
456.921	12.29343
457.131	67.09678
457.342	16.50851
457.553	20.72369
457.763	107.15516
457.974	39.69314
458.184	-21.42373
458.395	8.07845
458.606	27.04663
458.816	35.47754
459.027	50.23254
459.237	58.66448
459.448	75.52945
459.659	-0.35123
459.869	43.90883
460.08	77.63768
460.29	-15.10224
460.501	-6.67324
460.711	60.77252
460.922	3.86356
461.132	20.72369
461.343	24.93896
461.553	-8.78052
461.764	24.93896
461.974	60.77252
462.184	8.07845
462.395	1.75615
462.605	33.36978
462.816	18.61609
463.026	67.09678
463.236	-46.70749
463.447	12.29343
463.657	54.44846
463.867	-53.02787
464.078	24.93896
464.288	-31.95906
464.498	71.31307
464.709	-2.45859
464.919	52.34049
465.129	-15.10224
465.339	1.75615
465.55	12.29343
465.76	111.37229
465.97	-10.88778
466.18	96.6127
466.391	8.07845
466.601	27.04663
466.811	41.80097
467.021	75.52945
467.231	-15.10224
467.441	67.09678
467.651	-0.35123
467.862	16.50851
468.072	-40.38689
468.282	-6.67324
468.492	-0.35123
468.702	8.07845
468.912	24.93896
469.122	81.85419
469.332	92.39587
469.542	60.77252
469.752	134.5681
469.962	37.58533
470.172	-8.78052
470.382	60.77252
470.592	73.42125
470.802	29.15432
471.012	41.80097
471.222	88.17913
471.432	67.09678
471.642	81.85419
471.852	58.66448
472.062	58.66448
472.272	88.17913
472.482	64.98867
472.691	124.02423
472.901	41.80097
473.111	31.26204
473.321	81.85419
473.531	168.31207
473.741	81.85419
473.95	69.20492
474.16	109.26371
474.37	62.88058
474.58	109.26371
474.79	126.13296
474.999	52.34049
475.209	33.36978
475.419	151.43941
475.628	71.31307
475.838	50.23254
476.048	140.89469
476.258	102.93811
476.467	83.96248
476.677	170.42125
476.886	140.89469
477.096	111.37229
477.306	130.35049
477.515	121.91552
477.725	176.7489
477.935	86.0708
478.144	174.63967
478.354	124.02423
478.563	168.31207
478.773	159.87558
478.982	216.8283
479.192	166.20292
479.401	155.65745
479.611	218.93794
479.82	187.2954
480.03	176.7489
480.239	195.73297
480.449	117.69816
480.658	305.44984
480.868	176.7489
481.077	252.69488
481.287	231.59621
481.496	159.87558
481.705	299.11864
481.915	237.92561
482.124	126.13296
482.333	299.11864
482.543	313.8917
482.752	235.81579
482.961	332.88694
483.171	301.22902
483.38	248.47499
483.589	294.89792
483.799	305.44984
484.008	324.44443
484.217	275.90563
484.426	364.54882
484.636	339.219
484.845	474.33885
485.054	396.21454
485.263	379.32569
485.472	372.99264
485.682	434.21827
485.891	385.65888
486.1	413.10444
486.309	406.7706
486.518	463.78027
486.727	413.10444
486.936	522.91312
487.146	527.13733
487.355	474.33885
487.564	565.15772
487.773	632.76015
487.982	567.2701
488.191	658.11436
488.4	489.12151
488.609	605.29508
488.818	539.8103
489.027	541.92251
489.236	615.85832
489.445	683.47028
489.654	605.29508
489.863	806.04598
490.072	670.79211
490.281	757.43422
490.49	609.52034
490.698	793.36416
490.907	598.95729
491.116	713.05426
491.325	670.79211
491.534	814.50072
491.743	759.54766
491.952	822.95561
492.16	863.11829
492.369	928.65334
492.578	818.72815
492.787	905.3981
492.996	977.28082
493.204	970.93789
493.413	877.91585
493.622	1150.67455
493.831	903.28403
494.039	1049.1713
494.248	928.65334
494.457	992.08121
494.665	1063.97313
494.874	1072.43144
495.083	989.96684
495.291	1034.36975
495.5	1089.34831
495.709	1247.95749
495.917	1154.90408
496.126	1228.92332
496.335	1099.92152
496.543	1220.46377
496.752	1207.77453
496.96	1186.62608
497.169	1277.56664
497.377	1419.27253
497.586	1402.35216
497.794	1353.70636
498.003	1279.6816
498.211	1417.15749
498.42	1345.24629
498.628	1503.87455
498.837	1343.13127
499.045	1520.79488
499.254	1472.14882
499.462	1537.71515
499.671	1379.08671
499.879	1654.03943
500.087	1489.06922
500.296	1531.37006
500.504	1512.33472
500.713	1632.89
500.921	1520.79488
501.129	1476.37892
501.338	1434.07789
501.546	1785.15922
501.754	1495.41436
501.962	1804.19157
502.171	1668.84387
502.379	1850.7136
502.587	1742.86394
502.795	1842.25521
503.004	1618.08527
503.212	1935.29293
503.42	1768.24129
503.628	1835.91138
503.837	1825.33822
504.045	1897.23328
504.253	1909.92003
504.461	1981.80772
504.669	1818.99427
504.877	2098.0809
505.085	1945.86473
505.294	2197.4238
505.502	1960.665
505.71	2112.87775
505.918	1793.61808
506.126	2250.25826
506.334	2030.43357
506.542	2290.40871
506.75	2112.87775
506.958	2353.7972
507.166	2108.65012
507.374	2419.28919
507.582	2138.24291
507.79	2328.44285
507.998	2112.87775
508.206	2307.31315
508.414	2273.50366
508.622	2385.48811
508.83	2224.8984
509.037	2362.24833
509.245	2155.15239
509.453	2480.54671
509.661	2326.32992
509.869	2634.70427
510.077	2360.13556
510.285	2609.36767
510.492	2463.649
510.7	2710.70323
510.908	2537.57117
511.116	2493.21952
511.324	2453.08757
511.531	2674.81689
511.739	2598.81023
511.947	2704.37062
512.155	2653.70555
512.362	2615.70199
512.57	2698.03789
512.778	2736.03251
512.985	2712.81408
513.193	2776.13328
513.401	2824.66976
513.608	2831.00007
513.816	2600.92174
514.024	2949.1423
514.231	2714.92491
514.439	2782.46453
514.646	2797.23699
514.854	2957.57929
515.061	2835.22021
515.269	3010.30501
515.477	2944.92372
515.684	3041.93588
515.892	2938.59574
516.099	3006.0873
516.307	2921.72047
516.514	3126.26775
516.722	3117.8357
516.929	3242.18207
517.136	2906.95385
517.344	3318.02597
517.551	3035.60999
517.759	3448.59347
517.966	3189.49989
518.173	3379.10627
518.381	3277.99998
518.588	3391.74174
518.796	3216.89591
519.003	3379.10627
519.21	3263.25202
519.418	3391.74174
519.625	3328.55809
519.832	3362.25799
520.039	3328.55809
520.247	3534.89882
520.454	3330.66447
520.661	3616.96548
520.868	3454.90953
521.076	3827.26075
521.283	3585.40473
521.49	3566.46627
521.697	3671.66074
521.904	3707.41607
522.112	3509.64189
522.319	3694.79718
522.526	3728.44603
522.733	3848.27956
522.94	3640.10735
523.147	3892.41258
523.354	3787.31958
523.561	3905.02039
523.768	3646.41837
523.975	3862.99154
524.183	3776.80756
524.39	4031.05843
524.597	4010.05719
524.804	3993.25472
525.011	3934.4358
525.218	3947.0412
525.425	4068.85546
525.632	3984.853
525.838	4001.65612
526.045	4020.55807
526.252	4234.66242
526.459	4352.11616
526.666	4339.53506
526.873	4396.14385
527.08	4259.83674
527.287	4331.14723
527.494	4016.35778
527.701	4398.24017
527.907	4339.53506
528.114	4517.69406
528.321	4230.4664
528.528	4324.85613
528.735	4190.59999
528.941	4226.2703
529.148	4295.49509
529.355	4523.97912
529.562	4236.7604
529.768	4565.87446
529.975	4387.75836
530.182	4706.15883
530.388	4421.29822
530.595	4526.0741
530.802	4523.97912
531.008	4584.72447
531.215	4689.41375
531.422	4877.71228
531.628	4469.50196
531.835	4823.33383
532.042	4622.41906
532.248	4890.25895
532.455	4697.78647
532.661	5024.03875
532.868	4697.78647
533.074	4881.89459
533.281	4750.10778
533.487	5224.53084
533.694	5019.85956
533.9	5186.95489
534.107	4739.64465
534.313	5149.3714
534.52	4902.80481
534.726	5092.98204
534.933	4984.33271
535.139	5082.53771
535.345	5124.31155
535.552	5180.6915
535.758	5401.87043
535.965	5303.83298
536.171	5155.63584
536.377	5510.27695
536.584	5191.13037
536.79	5499.85601
536.996	5266.27301
537.203	5370.58751
537.409	5218.2687
537.615	5431.06306
537.821	5180.6915
538.028	5618.61981
538.234	5445.65764
538.44	5449.82731
538.646	5234.96726
538.853	5560.28926
539.059	5241.22883
539.265	5778.93344
539.471	5560.28926
539.677	5712.32658
539.883	5631.1168
540.09	5724.81721
540.296	5626.95123
540.502	5924.55169
540.708	5703.99903
540.914	5857.99769
541.12	5866.31826
541.326	5893.35751
541.532	5741.47006
541.738	5949.50321
541.944	5830.95323
542.15	5974.45133
542.356	5945.34486
542.562	6124.06886
542.768	5907.91545
542.974	6173.91428
543.18	6013.94559
543.386	6153.147
543.592	6053.43135
543.798	6229.97421
544.004	6082.52068
544.21	6429.16026
544.415	6171.83765
544.621	6462.33704
544.827	6173.91428
545.033	6290.1677
545.239	6281.86632
545.445	6425.01274
545.651	6271.48907
545.856	6485.14262
546.062	6514.16385
546.268	6491.36184
546.474	6227.89822
546.679	6458.19026
546.885	6383.53245
547.091	6410.4957
547.297	6286.01705
547.502	6539.03558
547.708	6516.23662
547.914	6594.98477
548.119	6449.89644
548.325	6576.33691
548.531	6483.0695
548.736	6961.34847
548.942	6681.98342
549.147	6615.70242
549.353	6669.55753
549.559	6762.73158
549.764	6514.16385
549.97	6806.19694
550.175	6820.68316
550.381	7079.17867
550.586	6657.13081
550.792	6919.9872
550.997	6886.89166
551.203	7054.37837
551.408	6886.89166
551.614	7188.67486
551.819	7013.03737
552.025	7039.91004
552.23	6857.92831
552.435	7091.5776
552.641	7277.46561
552.846	7333.19713
553.052	7248.56147
553.257	7413.67006
553.462	7345.57974
553.668	7318.74975
553.873	7448.73765
554.078	7298.10878
554.283	7260.94949
554.489	7591.00678
554.694	7357.96157
554.899	7562.14885
555.105	7337.32475
555.31	7430.17324
555.515	7337.32475
555.72	7549.77988
555.925	7362.08867
556.131	7794.95496
556.336	7675.49529
556.541	7516.79218
556.746	7407.48101
556.951	7522.97779
557.156	7465.23788
557.361	7613.67794
557.567	7729.05492
557.772	7846.42449
557.977	7683.73616
558.182	7807.30883
558.387	7656.95209
558.592	7716.69627
558.797	7829.95565
559.002	7908.17081
559.207	7943.15215
559.412	7846.42449
559.617	7650.77064
559.822	7844.36596
560.027	7737.2936
560.232	8027.49459
560.437	7930.80647
560.642	8000.75557
560.847	7924.63336
561.051	8107.69108
561.256	7832.01433
561.461	8080.96233
561.666	7749.65099
561.871	8298.80617
562.076	7984.29909
562.281	8216.62715
562.485	8027.49459
562.69	8198.13252
562.895	7832.01433
563.1	8183.74669
563.305	8083.01851
563.509	8288.53552
563.714	8083.01851
563.919	8446.64971
564.123	8298.80617
564.328	8405.59212
564.533	8228.95602
564.737	8378.90055
564.942	8313.18427
565.147	8495.90869
565.351	8255.66612
565.556	8456.9129
565.761	8307.02235
565.965	8444.59701
566.17	7918.46006
566.374	8444.59701
566.579	8354.25928
566.784	8778.93761
566.988	8532.84573
567.193	8604.65023
567.397	8604.65023
567.602	8541.05313
567.806	8307.02235
568.011	8680.53291
568.215	8682.58344
568.42	8893.69009
568.624	8686.68445
568.828	8783.03689
569.033	8461.01805
569.237	8908.03019
569.442	8926.46618
569.646	8584.13701
569.85	8815.82851
570.055	9022.71971
570.259	8717.43963
570.463	8817.87784
570.668	8920.32101
570.872	8940.80428
571.076	8860.90944
571.281	9123.02803
571.485	9065.71408
571.689	9018.6246
571.893	8965.38187
572.098	9157.8192
572.302	8682.58344
572.506	9309.20609
572.71	9215.11158
572.914	9260.11772
573.119	9014.52943
573.323	9127.12137
573.527	9069.80839
573.731	9444.15009
573.935	9258.07216
574.139	9202.83576
574.343	9020.67217
574.547	9523.85651
574.751	9307.16093
574.955	9487.07196
575.159	9411.44293
575.364	9495.24675
575.568	9184.42089
575.772	9288.75377
575.976	9409.39859
576.18	9278.52699
576.383	9272.39071
576.587	9378.73161
576.791	9313.29635
