Data from mixed_try1_USB4F045381__31__00096.txt Node

Date: Thu Apr 03 19:55:02 EDT 2025
User: mmckonesweet
Spectrometer: USB4F04538
Trigger mode: 4
Integration Time (sec): 2.700000E-3
Scans to average: 1
Electric dark correction enabled: true
Nonlinearity correction enabled: true
Boxcar width: 0
XAxis mode: Wavelengths
Number of Pixels in Spectrum: 3648
>>>>>Begin Spectral Data<<<<<
345.52	-14.39983
345.736	-14.39983
345.952	-14.39983
346.168	-88.13691
346.384	-56.53909
346.6	-5.9708
346.816	-22.82848
347.032	-31.25673
347.248	-14.39983
347.464	15.10348
347.68	36.18013
347.896	61.47521
348.112	-81.81781
348.328	25.64151
348.544	12.99594
348.76	23.53386
348.975	-18.61421
349.191	-22.82848
349.407	-22.82848
349.623	36.18013
349.839	34.07236
350.055	-14.39983
350.27	19.31862
350.486	-1.75614
350.702	36.18013
350.918	27.74919
351.133	29.85689
351.349	12.99594
351.565	-18.61421
351.781	2.45862
351.996	53.04315
352.212	-20.72135
352.428	6.67348
352.644	23.53386
352.859	36.18013
353.075	19.31862
353.291	42.50359
353.506	-86.03057
353.722	21.42623
353.938	-18.61421
354.153	-1.75614
354.369	15.10348
354.584	-12.29261
354.8	12.99594
355.016	-29.1497
355.231	25.64151
355.447	-5.9708
355.662	69.90763
355.878	-58.64579
356.093	25.64151
356.309	-18.61421
356.524	-98.66823
356.74	6.67348
356.955	-27.04265
357.171	-22.82848
357.386	15.10348
357.602	-39.68458
357.817	-5.9708
358.033	-12.29261
358.248	44.61145
358.464	-22.82848
358.679	-5.9708
358.895	-10.18537
359.11	-77.60495
359.325	2.45862
359.541	36.18013
359.756	34.07236
359.972	15.10348
360.187	36.18013
360.402	23.53386
360.618	19.31862
360.833	10.88843
361.048	-71.28546
361.264	-27.04265
361.479	27.74919
361.694	-60.75247
361.909	-39.68458
362.125	-1.75614
362.34	2.45862
362.555	10.88843
362.77	29.85689
362.986	-22.82848
363.201	2.45862
363.416	23.53386
363.631	36.18013
363.847	10.88843
364.062	15.10348
364.277	-20.72135
364.492	-3.86348
364.707	4.56604
364.922	-64.96574
365.138	-22.82848
365.353	44.61145
365.568	-3.86348
365.783	27.74919
365.998	-58.64579
366.213	29.85689
366.428	-56.53909
366.643	46.71934
366.858	44.61145
367.073	-69.17891
367.288	-27.04265
367.503	15.10348
367.718	-31.25673
367.933	10.88843
368.148	-31.25673
368.363	-88.13691
368.578	-5.9708
368.793	-35.47071
369.008	4.56604
369.223	15.10348
369.438	-5.9708
369.653	-64.96574
369.868	-39.68458
370.083	53.04315
370.298	38.28793
370.513	-86.03057
370.728	19.31862
370.943	-48.11204
371.157	-10.18537
371.372	2.45862
371.587	55.15113
371.802	8.78094
372.017	38.28793
372.232	-37.57766
372.446	-31.25673
372.661	-29.1497
372.876	-56.53909
373.091	61.47521
373.306	-24.93558
373.52	19.31862
373.735	78.34042
373.95	-1.75614
374.165	55.15113
374.379	2.45862
374.594	8.78094
374.809	-39.68458
375.023	80.44868
375.238	74.12398
375.453	-14.39983
375.667	-48.11204
375.882	42.50359
376.097	59.36716
376.311	19.31862
376.526	-14.39983
376.741	-12.29261
376.955	2.45862
377.17	10.88843
377.384	-10.18537
377.599	19.31862
377.813	-22.82848
378.028	-18.61421
378.242	-48.11204
378.457	-39.68458
378.672	17.21104
378.886	-54.43236
379.101	-20.72135
379.315	-18.61421
379.53	50.93519
379.744	23.53386
379.958	6.67348
380.173	-10.18537
380.387	-22.82848
380.602	23.53386
380.816	12.99594
381.031	6.67348
381.245	2.45862
381.459	4.56604
381.674	-29.1497
381.888	23.53386
382.103	-31.25673
382.317	78.34042
382.531	23.53386
382.746	19.31862
382.96	40.39575
383.174	-54.43236
383.388	44.61145
383.603	-52.32561
383.817	19.31862
384.031	-1.75614
384.246	-3.86348
384.46	-1.75614
384.674	-16.50703
384.888	-3.86348
385.103	2.45862
385.317	36.18013
385.531	50.93519
385.745	-20.72135
385.959	-14.39983
386.174	27.74919
386.388	23.53386
386.602	15.10348
386.816	-31.25673
387.03	-20.72135
387.244	6.67348
387.458	6.67348
387.672	-37.57766
387.887	-43.89836
388.101	44.61145
388.315	-27.04265
388.529	10.88843
388.743	6.67348
388.957	-58.64579
389.171	25.64151
389.385	15.10348
389.599	53.04315
389.813	27.74919
390.027	-8.0781
390.241	95.20708
390.455	-22.82848
390.669	-43.89836
390.883	-16.50703
391.097	-5.9708
391.311	-27.04265
391.525	8.78094
391.738	55.15113
391.952	82.55695
392.166	-46.00521
392.38	69.90763
392.594	44.61145
392.808	31.96461
393.022	-31.25673
393.236	10.88843
393.449	-43.89836
393.663	-12.29261
393.877	6.67348
394.091	36.18013
394.305	-14.39983
394.518	10.88843
394.732	55.15113
394.946	-10.18537
395.16	6.67348
395.373	-62.85911
395.587	-1.75614
395.801	21.42623
396.015	27.74919
396.228	-27.04265
396.442	59.36716
396.656	40.39575
396.869	-39.68458
397.083	27.74919
397.297	-8.0781
397.51	-37.57766
397.724	-20.72135
397.938	44.61145
398.151	-3.86348
398.365	38.28793
398.578	-29.1497
398.792	-54.43236
399.005	-37.57766
399.219	21.42623
399.433	38.28793
399.646	44.61145
399.86	-41.79148
400.073	-16.50703
400.287	90.99028
400.5	-54.43236
400.714	46.71934
400.927	12.99594
401.141	12.99594
401.354	-50.21884
401.567	-104.98671
401.781	-29.1497
401.994	53.04315
402.208	27.74919
402.421	-27.04265
402.635	15.10348
402.848	-10.18537
403.061	27.74919
403.275	53.04315
403.488	-37.57766
403.701	-27.04265
403.915	-20.72135
404.128	-3.86348
404.341	-16.50703
404.555	27.74919
404.768	53.04315
404.981	2.45862
405.195	6.67348
405.408	12.99594
405.621	2.45862
405.834	-29.1497
406.048	53.04315
406.261	48.82725
406.474	-1.75614
406.687	19.31862
406.9	-24.93558
407.114	-8.0781
407.327	53.04315
407.54	19.31862
407.753	46.71934
407.966	-37.57766
408.179	57.25913
408.392	46.71934
408.605	-10.18537
408.819	-29.1497
409.032	27.74919
409.245	-3.86348
409.458	57.25913
409.671	-1.75614
409.884	15.10348
410.097	-14.39983
410.31	-10.18537
410.523	-73.39198
410.736	-18.61421
410.949	-18.61421
411.162	44.61145
411.375	-14.39983
411.588	19.31862
411.801	21.42623
412.014	36.18013
412.227	-22.82848
412.44	36.18013
412.653	36.18013
412.865	6.67348
413.078	69.90763
413.291	36.18013
413.504	-77.60495
413.717	78.34042
413.93	-10.18537
414.143	29.85689
414.356	21.42623
414.568	-29.1497
414.781	61.47521
414.994	40.39575
415.207	23.53386
415.42	44.61145
415.632	42.50359
415.845	74.12398
416.058	19.31862
416.271	84.66525
416.483	-24.93558
416.696	-5.9708
416.909	40.39575
417.121	15.10348
417.334	27.74919
417.547	-22.82848
417.759	-33.36373
417.972	10.88843
418.185	-37.57766
418.397	-5.9708
418.61	-39.68458
418.823	86.77357
419.035	-39.68458
419.248	6.67348
419.46	-14.39983
419.673	21.42623
419.885	12.99594
420.098	55.15113
420.311	-43.89836
420.523	10.88843
420.736	29.85689
420.948	-20.72135
421.161	53.04315
421.373	-37.57766
421.586	-1.75614
421.798	-20.72135
422.01	19.31862
422.223	-18.61421
422.435	21.42623
422.648	4.56604
422.86	6.67348
423.073	-54.43236
423.285	2.45862
423.497	21.42623
423.71	-35.47071
423.922	40.39575
424.134	2.45862
424.347	55.15113
424.559	-27.04265
424.771	42.50359
424.984	-12.29261
425.196	12.99594
425.408	-14.39983
425.621	23.53386
425.833	-48.11204
426.045	29.85689
426.257	10.88843
426.47	34.07236
426.682	-64.96574
426.894	19.31862
427.106	36.18013
427.318	-35.47071
427.531	69.90763
427.743	-3.86348
427.955	2.45862
428.167	-27.04265
428.379	19.31862
428.591	55.15113
428.804	46.71934
429.016	-10.18537
429.228	-10.18537
429.44	-27.04265
429.652	-12.29261
429.864	82.55695
430.076	21.42623
430.288	27.74919
430.5	2.45862
430.712	-52.32561
430.924	61.47521
431.136	2.45862
431.348	40.39575
431.56	27.74919
431.772	29.85689
431.984	0.35123
432.196	19.31862
432.408	36.18013
432.62	-56.53909
432.832	-39.68458
433.044	15.10348
433.256	50.93519
433.468	59.36716
433.679	19.31862
433.891	-20.72135
434.103	57.25913
434.315	-8.0781
434.527	65.69137
434.739	-5.9708
434.95	-5.9708
435.162	15.10348
435.374	95.20708
435.586	48.82725
435.798	10.88843
436.009	12.99594
436.221	-3.86348
436.433	69.90763
436.645	-27.04265
436.856	-31.25673
437.068	42.50359
437.28	-12.29261
437.491	-54.43236
437.703	-62.85911
437.915	31.96461
438.126	29.85689
438.338	65.69137
438.55	-14.39983
438.761	4.56604
438.973	-54.43236
439.184	72.0158
439.396	103.64094
439.608	15.10348
439.819	2.45862
440.031	10.88843
440.242	-3.86348
440.454	63.58328
440.665	-33.36373
440.877	-22.82848
441.088	-3.86348
441.3	38.28793
441.511	50.93519
441.723	19.31862
441.934	-48.11204
442.146	-29.1497
442.357	10.88843
442.569	-8.0781
442.78	2.45862
442.991	-81.81781
443.203	-77.60495
443.414	-1.75614
443.626	78.34042
443.837	80.44868
444.048	36.18013
444.26	23.53386
444.471	48.82725
444.682	-12.29261
444.894	6.67348
445.105	8.78094
445.316	-27.04265
445.528	40.39575
445.739	-56.53909
445.95	69.90763
446.161	40.39575
446.373	29.85689
446.584	-14.39983
446.795	90.99028
447.006	-18.61421
447.217	19.31862
447.429	29.85689
447.64	2.45862
447.851	0.35123
448.062	6.67348
448.273	19.31862
448.484	88.88192
448.695	15.10348
448.907	-29.1497
449.118	25.64151
449.329	-20.72135
449.54	34.07236
449.751	34.07236
449.962	-10.18537
450.173	-3.86348
450.384	-1.75614
450.595	46.71934
450.806	44.61145
451.017	23.53386
451.228	-3.86348
451.439	78.34042
451.65	0.35123
451.861	6.67348
452.072	15.10348
452.283	15.10348
452.494	53.04315
452.705	-56.53909
452.915	0.35123
453.126	12.99594
453.337	46.71934
453.548	2.45862
453.759	21.42623
453.97	-50.21884
454.181	38.28793
454.391	65.69137
454.602	69.90763
454.813	69.90763
455.024	36.18013
455.235	-5.9708
455.445	61.47521
455.656	6.67348
455.867	27.74919
456.078	36.18013
456.288	19.31862
456.499	31.96461
456.71	27.74919
456.921	-14.39983
457.131	57.25913
457.342	34.07236
457.553	17.21104
457.763	36.18013
457.974	29.85689
458.184	23.53386
458.395	10.88843
458.606	80.44868
458.816	46.71934
459.027	29.85689
459.237	46.71934
459.448	69.90763
459.659	29.85689
459.869	10.88843
460.08	29.85689
460.29	38.28793
460.501	-5.9708
460.711	90.99028
460.922	2.45862
461.132	44.61145
461.343	10.88843
461.553	10.88843
461.764	38.28793
461.974	31.96461
462.184	61.47521
462.395	69.90763
462.605	82.55695
462.816	-20.72135
463.026	29.85689
463.236	61.47521
463.447	46.71934
463.657	-8.0781
463.867	-22.82848
464.078	-27.04265
464.288	10.88843
464.498	40.39575
464.709	10.88843
464.919	55.15113
465.129	27.74919
465.339	29.85689
465.55	42.50359
465.76	-12.29261
465.97	6.67348
466.18	72.0158
466.391	21.42623
466.601	34.07236
466.811	95.20708
467.021	-24.93558
467.231	15.10348
467.441	74.12398
467.651	55.15113
467.862	55.15113
468.072	-1.75614
468.282	19.31862
468.492	48.82725
468.702	44.61145
468.912	-16.50703
469.122	4.56604
469.332	48.82725
469.542	21.42623
469.752	42.50359
469.962	-3.86348
470.172	46.71934
470.382	-14.39983
470.592	65.69137
470.802	8.78094
471.012	53.04315
471.222	23.53386
471.432	25.64151
471.642	-1.75614
471.852	-5.9708
472.062	36.18013
472.272	-10.18537
472.482	23.53386
472.691	107.85801
472.901	10.88843
473.111	19.31862
473.321	21.42623
473.531	44.61145
473.741	21.42623
473.95	15.10348
474.16	61.47521
474.37	46.71934
474.58	112.07516
474.79	72.0158
474.999	69.90763
475.209	84.66525
475.419	42.50359
475.628	53.04315
475.838	152.14241
476.048	29.85689
476.258	63.58328
476.467	128.94464
476.677	10.88843
476.886	84.66525
477.096	55.15113
477.306	103.64094
477.515	-12.29261
477.725	103.64094
477.935	86.77357
478.144	162.68771
478.354	82.55695
478.563	44.61145
478.773	59.36716
478.982	50.93519
479.192	141.59765
479.401	99.42397
479.611	139.48876
479.82	126.83588
480.03	135.27105
480.239	120.50972
480.449	95.20708
480.658	164.79683
480.868	27.74919
481.077	137.37989
481.287	137.37989
481.496	154.25143
481.705	181.67054
481.915	128.94464
482.124	156.36047
482.333	99.42397
482.543	46.71934
482.752	120.50972
482.961	99.42397
483.171	187.99852
483.38	128.94464
483.589	128.94464
483.799	118.40105
484.008	190.10789
484.217	135.27105
484.426	118.40105
484.636	105.74946
484.845	196.43612
485.054	213.31227
485.263	263.94829
485.472	196.43612
485.682	196.43612
485.891	177.45199
486.1	249.1783
486.309	204.87403
486.518	263.94829
486.727	223.86052
486.936	232.29947
487.146	196.43612
487.355	280.82941
487.564	204.87403
487.773	238.62888
487.982	223.86052
488.191	257.61818
488.4	274.49885
488.609	249.1783
488.818	270.27857
489.027	187.99852
489.236	238.62888
489.445	344.14405
489.654	249.1783
489.863	367.3634
490.072	350.47639
490.281	318.81625
490.49	261.83823
490.698	323.03738
490.907	331.47983
491.116	335.70117
491.325	280.82941
491.534	434.92209
491.743	348.36559
491.952	365.25246
492.16	396.91826
492.369	418.03086
492.578	375.80731
492.787	462.37249
492.996	384.25149
493.204	449.70275
493.413	384.25149
493.622	358.91976
493.831	382.14042
494.039	424.36495
494.248	401.14065
494.457	510.94483
494.665	396.91826
494.874	534.1778
495.083	426.47635
495.291	515.16888
495.5	603.88667
495.709	551.07558
495.917	542.62658
496.126	542.62658
496.335	510.94483
496.543	519.39299
496.752	529.9535
496.96	538.40216
497.169	508.83283
497.377	563.74948
497.586	572.19902
497.794	652.47994
498.003	595.43635
498.211	589.09874
498.42	618.67523
498.628	603.88667
498.837	677.83549
499.045	603.88667
499.254	570.08662
499.462	756.02526
499.671	595.43635
499.879	633.46441
500.087	737.00477
500.296	567.97422
500.504	711.64545
500.713	726.4382
500.921	779.27365
501.129	789.84149
501.338	660.9316
501.546	722.21165
501.754	538.40216
501.962	810.9779
502.171	717.98514
502.379	872.27863
502.587	665.1575
502.795	849.02576
503.004	819.43272
503.212	768.70605
503.42	781.38719
503.628	929.35806
503.837	923.01562
504.045	798.29594
504.253	916.67325
504.461	906.10279
504.669	783.50075
504.877	910.33095
505.085	846.91191
505.294	956.84273
505.502	842.68425
505.71	946.27156
505.918	897.64656
506.126	1083.70932
506.334	927.24391
506.542	1185.21619
506.75	961.07124
506.958	1016.04441
507.166	935.70057
507.374	1121.7732
507.582	1016.04441
507.79	952.61424
507.998	1024.5022
508.206	1100.6264
508.414	1024.5022
508.622	994.90036
508.83	1003.35791
509.037	1159.83855
509.245	1009.70113
509.453	1138.69096
509.661	1126.00261
509.869	1219.05385
510.077	1005.47231
510.285	1180.98655
510.492	1049.87614
510.7	1282.50154
510.908	1041.41807
511.116	1161.95334
511.324	1117.5438
511.531	1145.0352
511.739	1111.19974
511.947	1202.13491
512.155	1083.70932
512.362	1240.2028
512.57	1159.83855
512.778	1269.81181
512.985	1151.37947
513.193	1176.75692
513.401	1229.62829
513.608	1301.53629
513.816	1337.49123
514.024	1345.95129
514.231	1185.21619
514.439	1233.85809
514.646	1233.85809
514.854	1329.0312
515.061	1335.37622
515.269	1409.40231
515.477	1468.62374
515.684	1388.25188
515.892	1295.19135
516.099	1455.93342
516.307	1409.40231
516.514	1561.68542
516.722	1398.82708
516.929	1603.98543
517.136	1485.54414
517.344	1563.80043
517.551	1458.04848
517.759	1546.88027
517.966	1506.69461
518.173	1642.05478
518.381	1464.39363
518.588	1525.72996
518.796	1610.33037
519.003	1671.66375
519.21	1441.12806
519.418	1625.13515
519.625	1663.2041
519.832	1703.38705
520.039	1642.05478
520.247	1680.12336
520.454	1697.04245
520.661	1895.82363
520.868	1642.05478
521.076	1779.51994
521.283	1582.8355
521.49	1796.43769
521.697	1703.38705
521.904	1891.59467
522.112	1671.66375
522.319	1828.15774
522.526	1718.19102
522.733	2003.65455
522.94	1709.73163
523.147	1823.92846
523.354	1779.51994
523.561	2033.25235
523.768	1728.76519
523.975	2096.67165
524.183	1821.81381
524.39	1804.89647
524.597	2109.35472
524.804	1999.42618
525.011	1931.76896
525.218	1946.56951
525.425	1955.02683
525.632	2109.35472
525.838	1929.65458
526.045	2043.82268
526.252	2145.28859
526.459	2122.03752
526.666	2073.41866
526.873	2147.40227
527.08	2058.62084
527.287	2119.92374
527.494	2067.07678
527.701	2297.4523
527.907	2134.72004
528.114	2115.69616
528.321	2141.06119
528.528	2122.03752
528.735	2187.56076
528.941	2107.2409
529.148	1929.65458
529.355	2286.88687
529.562	2278.43436
529.768	2274.20805
529.975	1988.85516
530.182	2299.56536
530.388	2060.73484
530.595	2396.75543
530.802	2360.83982
531.008	2394.64283
531.215	2288.99998
531.422	2379.85433
531.628	2280.5475
531.835	2555.16962
532.042	2369.29081
532.248	2612.18293
532.455	2388.30496
532.661	2521.37989
532.868	2422.10583
533.074	2479.13859
533.281	2333.37297
533.487	2546.72247
533.694	2506.59595
533.9	2833.8135
534.107	2517.15596
534.313	2618.5172
534.52	2572.06336
534.726	2749.39997
534.933	2620.6286
535.139	2808.49174
535.345	2635.40804
535.552	2580.50995
535.758	2692.4087
535.965	2871.79236
536.171	2692.4087
536.377	2660.74281
536.584	2696.6306
536.79	2869.68254
536.996	2740.95742
537.203	2894.99939
537.409	2607.96003
537.615	2838.0336
537.821	2783.168
538.028	3057.39861
538.234	2795.83012
538.44	2956.17314
538.646	2884.45095
538.853	3019.44317
539.059	2768.39491
539.265	2918.20467
539.471	2973.04647
539.677	3082.69943
539.883	2968.82823
540.09	3019.44317
540.296	2835.92356
540.502	3044.74735
540.708	3021.55194
540.914	2935.08014
541.12	3015.22559
541.326	3247.09854
541.532	3063.72402
541.738	3207.06176
541.944	3198.63221
542.15	3263.95432
542.356	3072.15769
542.562	3268.1681
542.768	3221.81285
542.974	3226.0273
543.18	3204.9544
543.386	3440.87363
543.592	3042.63875
543.798	3438.76818
544.004	3308.1956
544.21	3546.12328
544.415	3263.95432
544.621	3426.13508
544.827	3230.24168
545.033	3449.29527
545.239	3263.95432
545.445	3449.29527
545.651	3156.48048
545.856	3390.33783
546.062	3314.51516
546.268	3457.71662
546.474	3179.66474
546.679	3341.89817
546.885	3493.50413
547.091	3415.60701
547.297	3390.33783
547.502	3434.55722
547.708	3348.21691
547.914	3560.85458
548.119	3544.01873
548.325	3527.18171
548.531	3297.66264
548.736	3670.25846
548.942	3510.3435
549.147	3499.81903
549.353	3630.28987
549.559	3794.32731
549.764	3362.96002
549.97	3459.82191
550.175	3693.39504
550.381	3794.32731
550.586	3600.83496
550.792	3865.79371
550.997	3634.49741
551.203	3764.89336
551.408	3584.00194
551.614	3670.25846
551.819	3800.63409
552.025	3853.18366
552.23	3954.04388
552.435	4130.43621
552.641	3846.87836
552.846	4002.35622
553.052	4128.33717
553.257	4071.65498
553.462	3748.07224
553.668	4014.95766
553.873	3790.1227
554.078	3949.8423
554.283	3859.48878
554.489	3989.75404
554.694	4000.25591
554.899	4151.42554
555.105	3790.1227
555.31	4105.24626
555.515	3962.4468
555.72	4325.55515
555.925	4054.85734
556.131	4166.11682
556.336	3878.40305
556.541	4140.93114
556.746	4012.85747
556.951	4336.04017
557.156	4130.43621
557.361	4189.20103
557.567	4077.95375
557.772	4214.38088
557.977	4195.49627
558.182	4344.4278
558.387	4134.63425
558.592	4453.43533
558.797	4268.92671
559.002	4331.84622
559.207	4394.74629
559.412	4407.32396
559.617	4327.65219
559.822	4432.47693
560.027	4115.74244
560.232	4308.77799
560.437	4273.12195
560.642	4453.43533
560.847	4205.98793
561.051	4543.53139
561.256	4491.15492
561.461	4562.38352
561.666	4474.39154
561.871	4683.83174
562.076	4312.97241
562.281	4524.67745
562.485	4394.74629
562.69	4510.01204
562.895	4451.33959
563.1	4537.24694
563.305	4285.70714
563.509	4692.2047
563.714	4495.34555
563.919	4635.68025
564.123	4474.39154
564.328	4719.41432
564.533	4413.6125
564.737	4526.77242
564.942	4470.20048
565.147	4675.45842
565.351	4560.28893
565.556	4708.94953
565.761	4579.13947
565.965	4717.32141
566.17	4725.69292
566.374	4918.13751
566.579	4646.14897
566.784	4780.09896
566.988	4608.45894
567.193	4752.89785
567.397	4821.93931
567.602	4976.66919
567.806	4524.67745
568.011	4842.85607
568.215	4775.91442
568.42	4951.58639
568.624	4759.17537
568.828	4824.03109
569.033	4731.97132
569.237	4976.66919
569.442	4809.38816
569.646	4934.86268
569.85	4778.0067
570.055	4962.03796
570.259	4792.65202
570.463	5028.91436
570.668	4842.85607
570.872	4985.02938
571.076	4767.54508
571.281	5047.71909
571.485	4878.40933
571.689	5154.24376
571.893	4985.02938
572.098	5108.29934
572.302	4951.58639
572.506	5246.09879
572.71	4964.1282
572.914	5175.12387
573.119	4970.3988
573.323	5076.96716
573.527	4872.13571
573.731	5099.9446
573.935	5168.86008
574.139	5285.7495
574.343	5221.0519
574.547	5168.86008
574.751	5229.40124
574.955	5256.53401
575.159	5183.47526
575.364	5241.92454
575.568	5141.71458
575.772	5402.56555
575.976	5269.05549
576.18	5269.05549
576.383	5252.35999
576.587	5417.16238
576.791	5102.03332
576.995	5565.15085
577.199	5427.58798
577.403	5352.51053
577.607	5339.99466
577.811	5565.15085
578.015	5152.15562
578.219	5402.56555
