Data from mixed_try1_USB4F045381__9__00074.txt Node

Date: Thu Apr 03 19:51:51 EDT 2025
User: mmckonesweet
Spectrometer: USB4F04538
Trigger mode: 4
Integration Time (sec): 2.700000E-3
Scans to average: 1
Electric dark correction enabled: true
Nonlinearity correction enabled: true
Boxcar width: 0
XAxis mode: Wavelengths
Number of Pixels in Spectrum: 3648
>>>>>Begin Spectral Data<<<<<
345.52	-3.68787
345.736	-3.68787
345.952	-3.68787
346.168	-62.68356
346.384	-41.61591
346.6	19.49425
346.816	-7.90249
347.032	0.52684
347.248	-20.54576
347.464	27.92483
347.68	8.95656
347.896	-18.43861
348.112	-7.90249
348.328	-22.65289
348.544	-12.11701
348.76	51.11085
348.975	-18.43861
349.191	17.38667
349.407	-22.65289
349.623	-33.18815
349.839	-52.15005
350.055	59.54283
350.27	-28.97412
350.486	-28.97412
350.702	65.86705
350.918	59.54283
351.133	4.74166
351.349	-22.65289
351.565	-7.90249
351.781	-66.89679
351.996	25.81715
352.212	-7.90249
352.428	40.5714
352.644	44.78711
352.859	-16.33143
353.075	63.75895
353.291	2.63424
353.506	25.81715
353.722	-5.79519
353.938	34.24801
354.153	-16.33143
354.369	-16.33143
354.584	51.11085
354.8	17.38667
355.016	0.52684
355.231	-20.54576
355.447	-16.33143
355.662	-14.22423
355.878	36.35578
356.093	49.00291
356.309	-24.75999
356.524	67.97517
356.74	19.49425
356.955	-16.33143
357.171	17.38667
357.386	-7.90249
357.602	27.92483
357.817	30.03253
358.033	-16.33143
358.248	2.63424
358.464	-3.68787
358.679	6.8491
358.895	0.52684
359.11	42.67924
359.325	-54.2568
359.541	25.81715
359.756	4.74166
359.972	-39.50901
360.187	-43.72279
360.402	-24.75999
360.618	13.17157
360.833	-31.08114
361.048	-12.11701
361.264	11.06405
361.479	-7.90249
361.694	34.24801
361.909	23.70949
362.125	0.52684
362.34	19.49425
362.555	15.2791
362.77	-24.75999
362.986	-20.54576
363.201	-20.54576
363.416	2.63424
363.631	8.95656
363.847	19.49425
364.062	-10.00976
364.277	-12.11701
364.492	13.17157
364.707	-1.58052
364.922	-37.40208
365.138	74.29967
365.353	17.38667
365.568	46.895
365.783	-41.61591
365.998	23.70949
366.213	-102.70506
366.428	-75.32294
366.643	25.81715
366.858	-7.90249
367.073	-7.90249
367.288	-24.75999
367.503	-50.04327
367.718	11.06405
367.933	-56.36353
368.148	-28.97412
368.363	-7.90249
368.578	38.46358
368.793	-5.79519
369.008	-37.40208
369.223	8.95656
369.438	36.35578
369.653	-62.68356
369.868	30.03253
370.083	-20.54576
370.298	-14.22423
370.513	11.06405
370.728	-7.90249
370.943	0.52684
371.157	8.95656
371.372	11.06405
371.587	-39.50901
371.802	17.38667
372.017	-33.18815
372.232	17.38667
372.446	-56.36353
372.661	-24.75999
372.876	2.63424
373.091	-7.90249
373.306	67.97517
373.52	0.52684
373.735	25.81715
373.95	19.49425
374.165	27.92483
374.379	0.52684
374.594	11.06405
374.809	-3.68787
375.023	21.60186
375.238	34.24801
375.453	-24.75999
375.667	53.21881
375.882	-37.40208
376.097	34.24801
376.311	-24.75999
376.526	-56.36353
376.741	-31.08114
376.955	34.24801
377.17	34.24801
377.384	-41.61591
377.599	-5.79519
377.813	17.38667
378.028	0.52684
378.242	27.92483
378.457	4.74166
378.672	95.38278
378.886	46.895
379.101	-28.97412
379.315	8.95656
379.53	4.74166
379.744	-60.57691
379.958	11.06405
380.173	30.03253
380.387	-5.79519
380.602	-14.22423
380.816	-64.79019
381.031	2.63424
381.245	17.38667
381.459	17.38667
381.674	-12.11701
381.888	-33.18815
382.103	51.11085
382.317	-14.22423
382.531	2.63424
382.746	0.52684
382.96	49.00291
383.174	-75.32294
383.388	-33.18815
383.603	17.38667
383.817	21.60186
384.031	-24.75999
384.246	-52.15005
384.46	4.74166
384.674	-50.04327
384.888	63.75895
385.103	-7.90249
385.317	0.52684
385.531	61.65088
385.745	-20.54576
385.959	-35.29512
386.174	34.24801
386.388	8.95656
386.602	44.78711
386.816	17.38667
387.03	-12.11701
387.244	34.24801
387.458	76.40788
387.672	61.65088
387.887	-7.90249
388.101	46.895
388.315	-45.82964
388.529	-12.11701
388.743	-16.33143
388.957	8.95656
389.171	-41.61591
389.385	76.40788
389.599	-16.33143
389.813	59.54283
390.027	-7.90249
390.241	25.81715
390.455	36.35578
390.669	67.97517
390.883	27.92483
391.097	2.63424
391.311	-35.29512
391.525	-37.40208
391.738	-24.75999
391.952	-20.54576
392.166	-64.79019
392.38	-1.58052
392.594	8.95656
392.808	25.81715
393.022	-3.68787
393.236	44.78711
393.449	34.24801
393.663	53.21881
393.877	-16.33143
394.091	-16.33143
394.305	8.95656
394.518	11.06405
394.732	19.49425
394.946	25.81715
395.16	46.895
395.373	-56.36353
395.587	34.24801
395.801	-7.90249
396.015	-18.43861
396.228	8.95656
396.442	0.52684
396.656	-10.00976
396.869	-26.86706
397.083	51.11085
397.297	-5.79519
397.51	-22.65289
397.724	-41.61591
397.938	25.81715
398.151	2.63424
398.365	-28.97412
398.578	-54.2568
398.792	-16.33143
399.005	21.60186
399.219	-16.33143
399.433	-12.11701
399.646	-79.53586
399.86	-7.90249
400.073	74.29967
400.287	-16.33143
400.5	34.24801
400.714	17.38667
400.927	-28.97412
401.141	-50.04327
401.354	-7.90249
401.567	40.5714
401.781	13.17157
401.994	42.67924
402.208	-39.50901
402.421	-64.79019
402.635	-69.00336
402.848	-7.90249
403.061	-1.58052
403.275	-16.33143
403.488	-28.97412
403.701	-24.75999
403.915	-16.33143
404.128	2.63424
404.341	25.81715
404.555	17.38667
404.768	30.03253
404.981	4.74166
405.195	-43.72279
405.408	-39.50901
405.621	-33.18815
405.834	36.35578
406.048	-41.61591
406.261	55.32679
406.474	65.86705
406.687	42.67924
406.9	-16.33143
407.114	38.46358
407.327	-58.47023
407.54	-28.97412
407.753	-54.2568
407.966	82.73264
408.179	8.95656
408.392	25.81715
408.605	-26.86706
408.819	-5.79519
409.032	4.74166
409.245	44.78711
409.458	-26.86706
409.671	-7.90249
409.884	70.08331
410.097	2.63424
410.31	8.95656
410.523	-5.79519
410.736	0.52684
410.949	34.24801
411.162	21.60186
411.375	-31.08114
411.588	-60.57691
411.801	34.24801
412.014	57.4348
412.227	-7.90249
412.44	-20.54576
412.653	34.24801
412.865	-41.61591
413.078	4.74166
413.291	42.67924
413.504	0.52684
413.717	25.81715
413.93	59.54283
414.143	8.95656
414.356	105.92518
414.568	0.52684
414.781	36.35578
414.994	-41.61591
415.207	-54.2568
415.42	-50.04327
415.632	4.74166
415.845	-7.90249
416.058	25.81715
416.271	34.24801
416.483	-20.54576
416.696	-14.22423
416.909	57.4348
417.121	-66.89679
417.334	-35.29512
417.547	-7.90249
417.759	-1.58052
417.972	-24.75999
418.185	-52.15005
418.397	23.70949
418.61	-75.32294
418.823	0.52684
419.035	-73.21644
419.248	70.08331
419.46	-56.36353
419.673	2.63424
419.885	0.52684
420.098	11.06405
420.311	13.17157
420.523	44.78711
420.736	-5.79519
420.948	27.92483
421.161	42.67924
421.373	-60.57691
421.586	34.24801
421.798	38.46358
422.01	84.84094
422.223	42.67924
422.435	-50.04327
422.648	-5.79519
422.86	76.40788
423.073	53.21881
423.285	38.46358
423.497	51.11085
423.71	-37.40208
423.922	-16.33143
424.134	-7.90249
424.347	-62.68356
424.559	8.95656
424.771	63.75895
424.984	19.49425
425.196	0.52684
425.408	42.67924
425.621	4.74166
425.833	-20.54576
426.045	-12.11701
426.257	-41.61591
426.47	-54.2568
426.682	59.54283
426.894	-41.61591
427.106	30.03253
427.318	-14.22423
427.531	-64.79019
427.743	21.60186
427.955	46.895
428.167	17.38667
428.379	34.24801
428.591	80.62436
428.804	17.38667
429.016	-7.90249
429.228	76.40788
429.44	-14.22423
429.652	-16.33143
429.864	0.52684
430.076	-7.90249
430.288	59.54283
430.5	-5.79519
430.712	17.38667
430.924	46.895
431.136	-35.29512
431.348	93.27437
431.56	8.95656
431.772	17.38667
431.984	32.14026
432.196	63.75895
432.408	51.11085
432.62	0.52684
432.832	-28.97412
433.044	0.52684
433.256	2.63424
433.468	-39.50901
433.679	46.895
433.891	-14.22423
434.103	-64.79019
434.315	2.63424
434.527	-3.68787
434.739	17.38667
434.95	34.24801
435.162	42.67924
435.374	38.46358
435.586	25.81715
435.798	13.17157
436.009	8.95656
436.221	-16.33143
436.433	-79.53586
436.645	38.46358
436.856	30.03253
437.068	61.65088
437.28	8.95656
437.491	-20.54576
437.703	8.95656
437.915	30.03253
438.126	-7.90249
438.338	42.67924
438.55	-20.54576
438.761	-20.54576
438.973	97.49122
439.184	4.74166
439.396	-3.68787
439.608	-31.08114
439.819	38.46358
440.031	32.14026
440.242	-3.68787
440.454	-12.11701
440.665	-66.89679
440.877	55.32679
441.088	34.24801
441.3	-20.54576
441.511	-66.89679
441.723	-7.90249
441.934	13.17157
442.146	4.74166
442.357	25.81715
442.569	93.27437
442.78	-58.47023
442.991	-50.04327
443.203	-12.11701
443.414	40.5714
443.626	-79.53586
443.837	78.51611
444.048	61.65088
444.26	40.5714
444.471	-18.43861
444.682	17.38667
444.894	8.95656
445.105	-39.50901
445.316	-45.82964
445.528	25.81715
445.739	27.92483
445.95	-50.04327
446.161	2.63424
446.373	-37.40208
446.584	19.49425
446.795	51.11085
447.006	4.74166
447.217	-7.90249
447.429	34.24801
447.64	42.67924
447.851	8.95656
448.062	8.95656
448.273	-90.0677
448.484	6.8491
448.695	-31.08114
448.907	17.38667
449.118	55.32679
449.329	-54.2568
449.54	-58.47023
449.751	-31.08114
449.962	-24.75999
450.173	27.92483
450.384	42.67924
450.595	0.52684
450.806	-45.82964
451.017	-20.54576
451.228	-16.33143
451.439	82.73264
451.65	-39.50901
451.861	93.27437
452.072	-73.21644
452.283	-7.90249
452.494	46.895
452.705	53.21881
452.915	17.38667
453.126	2.63424
453.337	-41.61591
453.548	0.52684
453.759	-28.97412
453.97	8.95656
454.181	70.08331
454.391	-7.90249
454.602	25.81715
454.813	25.81715
455.024	93.27437
455.235	0.52684
455.445	-7.90249
455.656	27.92483
455.867	-50.04327
456.078	36.35578
456.288	15.2791
456.499	6.8491
456.71	2.63424
456.921	19.49425
457.131	-37.40208
457.342	11.06405
457.553	46.895
457.763	34.24801
457.974	59.54283
458.184	44.78711
458.395	0.52684
458.606	23.70949
458.816	-41.61591
459.027	17.38667
459.237	-24.75999
459.448	-22.65289
459.659	-47.93647
459.869	-22.65289
460.08	-45.82964
460.29	2.63424
460.501	-3.68787
460.711	21.60186
460.922	-31.08114
461.132	-41.61591
461.343	44.78711
461.553	-14.22423
461.764	-41.61591
461.974	-22.65289
462.184	44.78711
462.395	76.40788
462.605	13.17157
462.816	67.97517
463.026	-10.00976
463.236	-66.89679
463.447	38.46358
463.657	40.5714
463.867	-50.04327
464.078	72.19148
464.288	-18.43861
464.498	72.19148
464.709	25.81715
464.919	8.95656
465.129	63.75895
465.339	-75.32294
465.55	21.60186
465.76	32.14026
465.97	-16.33143
466.18	-37.40208
466.391	0.52684
466.601	25.81715
466.811	-31.08114
467.021	17.38667
467.231	-22.65289
467.441	89.05761
467.651	-41.61591
467.862	-5.79519
468.072	-1.58052
468.282	30.03253
468.492	8.95656
468.702	-3.68787
468.912	8.95656
469.122	21.60186
469.332	17.38667
469.542	-24.75999
469.752	-22.65289
469.962	84.84094
470.172	72.19148
470.382	57.4348
470.592	42.67924
470.802	27.92483
471.012	-73.21644
471.222	-3.68787
471.432	38.46358
471.642	34.24801
471.852	21.60186
472.062	65.86705
472.272	74.29967
472.482	27.92483
472.691	51.11085
472.901	32.14026
473.111	13.17157
473.321	27.92483
473.531	17.38667
473.741	11.06405
473.95	15.2791
474.16	8.95656
474.37	-22.65289
474.58	-37.40208
474.79	-45.82964
474.999	17.38667
475.209	19.49425
475.419	27.92483
475.628	11.06405
475.838	-24.75999
476.048	-14.22423
476.258	-22.65289
476.467	59.54283
476.677	-14.22423
476.886	-73.21644
477.096	59.54283
477.306	19.49425
477.515	36.35578
477.725	101.70815
477.935	0.52684
478.144	-20.54576
478.354	19.49425
478.563	-10.00976
478.773	-75.32294
478.982	78.51611
479.192	0.52684
479.401	2.63424
479.611	-3.68787
479.82	34.24801
480.03	-50.04327
480.239	42.67924
480.449	36.35578
480.658	25.81715
480.868	-71.10991
481.077	-22.65289
481.287	30.03253
481.496	11.06405
481.705	13.17157
481.915	74.29967
482.124	2.63424
482.333	-31.08114
482.543	8.95656
482.752	34.24801
482.961	42.67924
483.171	8.95656
483.38	-20.54576
483.589	42.67924
483.799	36.35578
484.008	11.06405
484.217	-33.18815
484.426	-16.33143
484.636	46.895
484.845	70.08331
485.054	17.38667
485.263	-16.33143
485.472	67.97517
485.682	-3.68787
485.891	-66.89679
486.1	23.70949
486.309	11.06405
486.518	-7.90249
486.727	-33.18815
486.936	76.40788
487.146	63.75895
487.355	72.19148
487.564	-33.18815
487.773	67.97517
487.982	95.38278
488.191	93.27437
488.4	-7.90249
488.609	59.54283
488.818	53.21881
489.027	89.05761
489.236	53.21881
489.445	67.97517
489.654	-7.90249
489.863	59.54283
490.072	17.38667
490.281	76.40788
490.49	-10.00976
490.698	46.895
490.907	76.40788
491.116	27.92483
491.325	84.84094
491.534	34.24801
491.743	101.70815
491.952	42.67924
492.16	59.54283
492.369	30.03253
492.578	2.63424
492.787	65.86705
492.996	38.46358
493.204	38.46358
493.413	30.03253
493.622	57.4348
493.831	-7.90249
494.039	15.2791
494.248	11.06405
494.457	13.17157
494.665	4.74166
494.874	19.49425
495.083	70.08331
495.291	97.49122
495.5	38.46358
495.709	86.94927
495.917	51.11085
496.126	80.62436
496.335	21.60186
496.543	67.97517
496.752	80.62436
496.96	51.11085
497.169	70.08331
497.377	93.27437
497.586	97.49122
497.794	17.38667
498.003	15.2791
498.211	108.03372
498.42	17.38667
498.628	38.46358
498.837	103.81665
499.045	27.92483
499.254	42.67924
499.462	42.67924
499.671	78.51611
499.879	42.67924
500.087	67.97517
500.296	-7.90249
500.504	8.95656
500.713	110.14229
500.921	122.79415
501.129	80.62436
501.338	-41.61591
501.546	23.70949
501.754	42.67924
501.962	34.24801
502.171	-7.90249
502.379	51.11085
502.587	40.5714
502.795	53.21881
503.004	55.32679
503.212	80.62436
503.42	127.01161
503.628	143.8823
503.837	55.32679
504.045	116.46812
504.253	84.84094
504.461	51.11085
504.669	127.01161
504.877	97.49122
505.085	63.75895
505.294	127.01161
505.502	110.14229
505.71	72.19148
505.918	152.31817
506.126	152.31817
506.334	80.62436
506.542	46.895
506.75	84.84094
506.958	34.24801
507.166	25.81715
507.374	129.12037
507.582	120.68545
507.79	51.11085
507.998	11.06405
508.206	101.70815
508.414	89.05761
508.622	160.75436
508.83	110.14229
509.037	122.79415
509.245	101.70815
509.453	89.05761
509.661	101.70815
509.869	89.05761
510.077	118.57677
510.285	135.44678
510.492	127.01161
510.7	114.35949
510.908	112.25088
511.116	127.01161
511.324	122.79415
511.531	95.38278
511.739	103.81665
511.947	95.38278
512.155	76.40788
512.362	93.27437
512.57	70.08331
512.778	112.25088
512.985	97.49122
513.193	120.68545
513.401	110.14229
513.608	118.57677
513.816	143.8823
514.024	135.44678
514.231	55.32679
514.439	78.51611
514.646	190.28367
514.854	169.1909
515.061	101.70815
515.269	186.06495
515.477	93.27437
515.684	156.53622
515.892	112.25088
516.099	219.81696
516.307	158.64528
516.514	129.12037
516.722	127.01161
516.929	120.68545
517.136	129.12037
517.344	129.12037
517.551	120.68545
517.759	194.50247
517.966	129.12037
518.173	181.84631
518.381	196.6119
518.588	171.30008
518.796	158.64528
519.003	160.75436
519.21	183.95562
519.418	194.50247
519.625	247.24421
519.832	152.31817
520.039	120.68545
520.247	196.6119
520.454	141.77339
520.661	177.62776
520.868	211.37848
521.076	217.70731
521.283	198.72135
521.49	122.79415
521.697	232.47528
521.904	103.81665
522.112	198.72135
522.319	173.40929
522.526	95.38278
522.733	219.81696
522.94	198.72135
523.147	181.84631
523.354	221.92663
523.561	169.1909
523.768	230.36551
523.975	236.69488
524.183	202.94032
524.39	259.90403
524.597	219.81696
524.804	289.44628
525.011	221.92663
525.218	291.55658
525.425	186.06495
525.632	217.70731
525.838	186.06495
526.045	238.8047
526.252	259.90403
526.459	194.50247
526.666	226.14603
526.873	304.21876
527.08	177.62776
527.287	308.43963
527.494	207.15936
527.701	299.99796
527.907	238.8047
528.114	278.89506
528.321	217.70731
528.528	316.8816
528.735	274.6747
528.941	262.01407
529.148	181.84631
529.355	278.89506
529.562	304.21876
529.768	278.89506
529.975	245.1343
530.182	312.66058
530.388	295.77723
530.595	329.54508
530.802	243.02442
531.008	342.2092
531.215	346.43071
531.422	331.65572
531.628	299.99796
531.835	390.76073
532.042	331.65572
532.248	399.20538
532.455	337.98775
532.661	416.09547
532.868	371.76124
533.074	424.5409
533.281	312.66058
533.487	411.87285
533.694	321.10269
533.9	458.32515
534.107	312.66058
534.313	356.9848
534.52	350.65229
534.726	443.54405
534.933	451.9903
535.139	430.87514
535.345	397.09419
535.552	344.31995
535.758	430.87514
535.965	439.32102
536.171	382.31634
536.377	422.42952
536.584	490.00145
536.79	428.76371
536.996	506.89684
537.203	498.44903
537.409	399.20538
537.615	487.88959
537.821	401.31658
538.028	477.33052
538.234	443.54405
538.44	468.88354
538.646	407.65029
538.853	509.00883
539.059	458.32515
539.265	502.6729
539.471	479.44231
539.677	568.15026
539.883	544.91483
540.09	519.56899
540.296	540.69038
540.502	608.28796
540.708	559.70082
540.914	633.64047
541.12	559.70082
541.326	561.81316
541.532	528.01738
541.738	595.61239
541.944	616.7386
542.15	582.93728
542.356	639.97888
542.562	585.04977
542.768	654.76892
542.974	616.7386
543.18	635.75326
543.386	718.16124
543.592	618.85129
543.798	743.52096
544.004	597.72496
544.21	561.81316
544.415	663.22063
544.621	751.97453
544.827	652.65602
545.033	718.16124
545.239	639.97888
545.445	762.54173
545.651	536.46599
545.856	726.61431
546.062	745.63433
546.268	692.80309
546.474	694.9162
546.679	642.09171
546.885	743.52096
547.091	678.01157
547.297	743.52096
547.502	834.40517
547.708	743.52096
547.914	872.4548
548.119	802.69936
548.325	779.44977
548.531	745.63433
548.736	861.88518
548.942	836.51897
549.147	779.44977
549.353	828.06384
549.559	847.08807
549.764	832.29139
549.97	819.60887
550.175	836.51897
550.381	781.56332
550.586	811.15404
550.792	959.13317
550.997	796.35845
551.203	914.73532
551.408	899.93677
551.614	899.93677
551.819	906.27896
552.025	984.50478
552.23	844.97423
552.435	995.07656
552.641	971.81885
552.846	838.63277
553.052	766.76868
553.257	1007.76292
553.462	1016.22061
553.668	1064.8542
553.873	1098.68797
554.078	1077.54171
554.283	847.08807
554.489	1075.42711
554.694	914.73532
554.899	1088.11478
555.105	1115.60533
555.31	971.81885
555.515	1060.62508
555.72	1028.90734
555.925	1041.59428
556.131	1172.70354
556.336	1090.22941
556.541	1140.98193
556.746	1098.68797
556.951	1140.98193
557.156	1009.87733
557.361	1263.64323
557.567	1086.00015
557.772	1293.25263
557.977	1016.22061
558.182	1195.9666
558.387	1140.98193
558.592	1174.81834
558.797	1217.11521
559.002	1208.65573
559.207	1244.60887
559.412	1331.32246
559.617	1191.73692
559.822	1217.11521
560.027	1079.65631
560.232	1350.35758
560.437	1335.55247
560.642	1308.05749
560.847	1242.49396
561.051	1301.71254
561.256	1360.9327
561.461	1445.53442
561.666	1195.9666
561.871	1289.02269
562.076	1160.01479
562.281	1458.22473
562.485	1255.18349
562.69	1415.92371
562.895	1405.34847
563.1	1496.29563
563.305	1318.63245
563.509	1390.54317
563.714	1424.3839
563.919	1523.79118
564.123	1415.92371
564.328	1553.40159
564.533	1386.31309
564.737	1523.79118
564.942	1388.42813
565.147	1591.47174
565.351	1428.614
565.556	1515.33103
565.761	1470.91504
565.965	1500.52573
566.17	1320.74745
566.374	1504.75582
566.579	1515.33103
566.784	1661.26542
566.988	1515.33103
567.193	1657.03557
567.397	1563.97668
567.602	1657.03557
567.806	1434.95916
568.011	1680.29961
568.215	1678.18471
568.42	1745.85991
568.624	1566.0917
568.828	1733.17107
569.033	1661.26542
569.237	1650.69078
569.442	1555.51661
569.646	1606.27666
569.85	1665.49526
570.055	1633.77123
570.259	1657.03557
570.463	1779.69617
570.668	1676.06981
570.872	1817.76072
571.076	1747.9747
571.281	1893.88536
571.485	1589.35675
571.689	1815.64606
571.893	1720.4821
572.098	1986.91712
572.302	1830.44859
572.506	1919.25876
572.71	1659.1505
572.914	2054.569
573.119	1648.57585
573.323	1817.76072
573.527	1769.12244
573.731	1944.63136
573.935	1868.51119
574.139	1982.68866
574.343	1826.21932
574.547	2033.42853
574.751	1978.46016
574.955	2054.569
575.159	1970.00311
575.364	2088.39228
575.568	1938.28829
575.772	2071.48087
575.976	1970.00311
576.18	1936.17392
576.383	1931.94516
576.587	2130.66871
576.791	1927.71639
576.995	2227.89234
577.199	1853.70926
577.403	2117.9861
577.607	1986.91712
577.811	2198.30441
578.015	2022.85804
578.219	2096.84781
578.422	1986.91712
578.626	2130.66871
578.83	1902.34325
579.034	2086.27838
579.238	2098.96167
579.442	2259.59177
579.645	2217.32542
579.849	2257.47854
580.053	2306.08056
580.257	2439.18128
580.46	2090.50617
580.664	2314.53257
580.868	2206.75828
581.071	2259.59177
581.275	2232.11905
581.479	2310.30659
581.682	2303.96753
581.886	2369.46688
582.09	2272.27098
