Data from mixed_try1_USB4F045381__19__00084.txt Node

Date: Thu Apr 03 19:52:58 EDT 2025
User: mmckonesweet
Spectrometer: USB4F04538
Trigger mode: 4
Integration Time (sec): 2.700000E-3
Scans to average: 1
Electric dark correction enabled: true
Nonlinearity correction enabled: true
Boxcar width: 0
XAxis mode: Wavelengths
Number of Pixels in Spectrum: 3648
>>>>>Begin Spectral Data<<<<<
345.52	-71.98763
345.736	-71.98763
345.952	-71.98763
346.168	-23.53085
346.384	-65.66794
346.6	-2.45859
346.816	62.88058
347.032	8.07845
347.248	-17.20943
347.464	54.44846
347.68	-42.49378
347.896	12.29343
348.112	-25.63794
348.328	-80.41353
348.544	20.72369
348.76	-27.74501
348.975	37.58533
349.191	12.29343
349.407	-25.63794
349.623	-0.35123
349.839	-55.13461
350.055	48.12461
350.27	-71.98763
350.486	24.93896
350.702	3.86356
350.918	-29.85205
351.133	-23.53085
351.349	-10.88778
351.565	-23.53085
351.781	37.58533
351.996	-12.99502
352.212	56.55646
352.428	22.83131
352.644	12.29343
352.859	20.72369
353.075	-10.88778
353.291	-2.45859
353.506	-40.38689
353.722	-55.13461
353.938	-69.8811
354.153	54.44846
354.369	22.83131
354.584	3.86356
354.8	-29.85205
355.016	-4.56592
355.231	24.93896
355.447	29.15432
355.662	37.58533
355.878	16.50851
356.093	14.40096
356.309	-76.20064
356.524	48.12461
356.74	20.72369
356.955	-4.56592
357.171	1.75615
357.386	-19.31659
357.602	-101.47647
357.817	-57.24133
358.033	39.69314
358.248	-23.53085
358.464	-6.67324
358.679	16.50851
358.895	16.50851
359.11	31.26204
359.325	33.36978
359.541	48.12461
359.756	-10.88778
359.972	8.07845
360.187	-0.35123
360.402	37.58533
360.618	27.04663
360.833	24.93896
361.048	37.58533
361.264	-34.06606
361.479	5.97099
361.694	31.26204
361.909	16.50851
362.125	43.90883
362.34	-21.42373
362.555	-21.42373
362.77	-38.27997
362.986	3.86356
363.201	-53.02787
363.416	-17.20943
363.631	12.29343
363.847	-4.56592
364.062	1.75615
364.277	-61.45468
364.492	-10.88778
364.707	-29.85205
364.922	-19.31659
365.138	14.40096
365.353	-34.06606
365.568	20.72369
365.783	-4.56592
365.998	-40.38689
366.213	-12.99502
366.428	3.86356
366.643	35.47754
366.858	22.83131
367.073	-21.42373
367.288	22.83131
367.503	5.97099
367.718	8.07845
367.933	52.34049
368.148	37.58533
368.363	-10.88778
368.578	-8.78052
368.793	1.75615
369.008	12.29343
369.223	22.83131
369.438	64.98867
369.653	-27.74501
369.868	16.50851
370.083	-36.17303
370.298	37.58533
370.513	-8.78052
370.728	31.26204
370.943	73.42125
371.157	-36.17303
371.372	20.72369
371.587	1.75615
371.802	-2.45859
372.017	62.88058
372.232	3.86356
372.446	8.07845
372.661	41.80097
372.876	67.09678
373.091	-29.85205
373.306	-78.3071
373.52	22.83131
373.735	-12.99502
373.95	-78.3071
374.165	-97.26409
374.379	16.50851
374.594	3.86356
374.809	41.80097
375.023	-57.24133
375.238	-21.42373
375.453	-69.8811
375.667	56.55646
375.882	31.26204
376.097	-42.49378
376.311	-31.95906
376.526	-12.99502
376.741	-29.85205
376.955	-69.8811
377.17	-0.35123
377.384	-8.78052
377.599	-0.35123
377.813	29.15432
378.028	-46.70749
378.242	46.01671
378.457	-38.27997
378.672	31.26204
378.886	-12.99502
379.101	20.72369
379.315	-63.56133
379.53	8.07845
379.744	-17.20943
379.958	-38.27997
380.173	-12.99502
380.387	71.31307
380.602	-17.20943
380.816	-12.99502
381.031	52.34049
381.245	29.15432
381.459	37.58533
381.674	20.72369
381.888	-4.56592
382.103	-10.88778
382.317	-50.9211
382.531	-12.99502
382.746	-29.85205
382.96	-4.56592
383.174	64.98867
383.388	54.44846
383.603	29.15432
383.817	-2.45859
384.031	31.26204
384.246	3.86356
384.46	-2.45859
384.674	20.72369
384.888	-21.42373
385.103	12.29343
385.317	29.15432
385.531	20.72369
385.745	12.29343
385.959	20.72369
386.174	75.52945
386.388	-12.99502
386.602	43.90883
386.816	41.80097
387.03	-69.8811
387.244	-27.74501
387.458	75.52945
387.672	-57.24133
387.887	33.36978
388.101	5.97099
388.315	20.72369
388.529	20.72369
388.743	-6.67324
388.957	98.72115
389.171	-0.35123
389.385	5.97099
389.599	-46.70749
389.813	75.52945
390.027	20.72369
390.241	-34.06606
390.455	-40.38689
390.669	43.90883
390.883	-21.42373
391.097	46.01671
391.311	-15.10224
391.525	-17.20943
391.738	14.40096
391.952	-21.42373
392.166	-71.98763
392.38	81.85419
392.594	39.69314
392.808	43.90883
393.022	-38.27997
393.236	12.29343
393.449	-29.85205
393.663	46.01671
393.877	-4.56592
394.091	54.44846
394.305	8.07845
394.518	3.86356
394.732	-12.99502
394.946	48.12461
395.16	-10.88778
395.373	-27.74501
395.587	29.15432
395.801	39.69314
396.015	12.29343
396.228	-4.56592
396.442	41.80097
396.656	54.44846
396.869	46.01671
397.083	-2.45859
397.297	-2.45859
397.51	-0.35123
397.724	79.74592
397.938	71.31307
398.151	-12.99502
398.365	14.40096
398.578	20.72369
398.792	71.31307
399.005	-25.63794
399.219	-19.31659
399.433	-23.53085
399.646	20.72369
399.86	67.09678
400.073	-19.31659
400.287	-53.02787
400.5	8.07845
400.714	-36.17303
400.927	5.97099
401.141	-8.78052
401.354	-4.56592
401.567	-19.31659
401.781	-34.06606
401.994	-12.99502
402.208	69.20492
402.421	20.72369
402.635	-38.27997
402.848	12.29343
403.061	20.72369
403.275	-10.88778
403.488	50.23254
403.701	48.12461
403.915	3.86356
404.128	-12.99502
404.341	-0.35123
404.555	37.58533
404.768	22.83131
404.981	12.29343
405.195	-2.45859
405.408	35.47754
405.621	-27.74501
405.834	12.29343
406.048	3.86356
406.261	3.86356
406.474	29.15432
406.687	-25.63794
406.9	-4.56592
407.114	-71.98763
407.327	62.88058
407.54	29.15432
407.753	81.85419
407.966	16.50851
408.179	-0.35123
408.392	-12.99502
408.605	1.75615
408.819	14.40096
409.032	22.83131
409.245	-12.99502
409.458	62.88058
409.671	-46.70749
409.884	16.50851
410.097	-53.02787
410.31	-0.35123
410.523	-46.70749
410.736	73.42125
410.949	8.07845
411.162	-34.06606
411.375	71.31307
411.588	73.42125
411.801	24.93896
412.014	-15.10224
412.227	-2.45859
412.44	96.6127
412.653	-61.45468
412.865	-34.06606
413.078	22.83131
413.291	73.42125
413.504	-95.15786
413.717	88.17913
413.93	62.88058
414.143	-71.98763
414.356	14.40096
414.568	-59.34802
414.781	-29.85205
414.994	58.66448
415.207	-23.53085
415.42	-4.56592
415.632	67.09678
415.845	8.07845
416.058	-17.20943
416.271	-10.88778
416.483	-55.13461
416.696	-12.99502
416.909	29.15432
417.121	-8.78052
417.334	-8.78052
417.547	22.83131
417.759	71.31307
417.972	20.72369
418.185	-15.10224
418.397	-36.17303
418.61	50.23254
418.823	-25.63794
419.035	12.29343
419.248	14.40096
419.46	-12.99502
419.673	62.88058
419.885	-36.17303
420.098	12.29343
420.311	-19.31659
420.523	-17.20943
420.736	-40.38689
420.948	27.04663
421.161	33.36978
421.373	3.86356
421.586	39.69314
421.798	-12.99502
422.01	20.72369
422.223	-67.77453
422.435	-12.99502
422.648	14.40096
422.86	14.40096
423.073	-2.45859
423.285	-50.9211
423.497	-55.13461
423.71	24.93896
423.922	29.15432
424.134	-88.83902
424.347	8.07845
424.559	5.97099
424.771	18.61609
424.984	-12.99502
425.196	124.02423
425.408	96.6127
425.621	27.04663
425.833	8.07845
426.045	24.93896
426.257	33.36978
426.47	-21.42373
426.682	88.17913
426.894	20.72369
427.106	46.01671
427.318	48.12461
427.531	-38.27997
427.743	-12.99502
427.955	5.97099
428.167	-19.31659
428.379	-17.20943
428.591	64.98867
428.804	-8.78052
429.016	41.80097
429.228	-40.38689
429.44	-34.06606
429.652	22.83131
429.864	10.18593
430.076	37.58533
430.288	67.09678
430.5	16.50851
430.712	90.28749
430.924	-15.10224
431.136	41.80097
431.348	14.40096
431.56	29.15432
431.772	5.97099
431.984	8.07845
432.196	31.26204
432.408	52.34049
432.62	29.15432
432.832	88.17913
433.044	-4.56592
433.256	3.86356
433.468	5.97099
433.679	-2.45859
433.891	-76.20064
434.103	-59.34802
434.315	-17.20943
434.527	-21.42373
434.739	41.80097
434.95	62.88058
435.162	39.69314
435.374	81.85419
435.586	24.93896
435.798	48.12461
436.009	8.07845
436.221	60.77252
436.433	39.69314
436.645	58.66448
436.856	86.0708
437.068	-8.78052
437.28	-21.42373
437.491	-29.85205
437.703	-36.17303
437.915	-21.42373
438.126	-29.85205
438.338	27.04663
438.55	-2.45859
438.761	62.88058
438.973	-25.63794
439.184	35.47754
439.396	41.80097
439.608	12.29343
439.819	3.86356
440.031	90.28749
440.242	20.72369
440.454	29.15432
440.665	79.74592
440.877	46.01671
441.088	67.09678
441.3	75.52945
441.511	5.97099
441.723	10.18593
441.934	22.83131
442.146	12.29343
442.357	31.26204
442.569	46.01671
442.78	22.83131
442.991	39.69314
443.203	12.29343
443.414	24.93896
443.626	31.26204
443.837	-10.88778
444.048	5.97099
444.26	29.15432
444.471	20.72369
444.682	3.86356
444.894	31.26204
445.105	-10.88778
445.316	-17.20943
445.528	56.55646
445.739	-10.88778
445.95	-63.56133
446.161	37.58533
446.373	67.09678
446.584	-8.78052
446.795	50.23254
447.006	12.29343
447.217	71.31307
447.429	-10.88778
447.64	33.36978
447.851	37.58533
448.062	3.86356
448.273	54.44846
448.484	20.72369
448.695	-6.67324
448.907	5.97099
449.118	-69.8811
449.329	-12.99502
449.54	29.15432
449.751	73.42125
449.962	88.17913
450.173	50.23254
450.384	58.66448
450.595	79.74592
450.806	54.44846
451.017	-21.42373
451.228	22.83131
451.439	-36.17303
451.65	12.29343
451.861	43.90883
452.072	83.96248
452.283	73.42125
452.494	24.93896
452.705	58.66448
452.915	-0.35123
453.126	54.44846
453.337	-29.85205
453.548	-8.78052
453.759	64.98867
453.97	-17.20943
454.181	46.01671
454.391	52.34049
454.602	-10.88778
454.813	62.88058
455.024	-2.45859
455.235	100.82962
455.445	37.58533
455.656	16.50851
455.867	31.26204
456.078	75.52945
456.288	12.29343
456.499	37.58533
456.71	-10.88778
456.921	24.93896
457.131	-36.17303
457.342	86.0708
457.553	71.31307
457.763	3.86356
457.974	100.82962
458.184	14.40096
458.395	16.50851
458.606	-25.63794
458.816	-6.67324
459.027	31.26204
459.237	37.58533
459.448	-2.45859
459.659	18.61609
459.869	-40.38689
460.08	77.63768
460.29	43.90883
460.501	62.88058
460.711	130.35049
460.922	48.12461
461.132	71.31307
461.343	43.90883
461.553	54.44846
461.764	-23.53085
461.974	24.93896
462.184	46.01671
462.395	-61.45468
462.605	46.01671
462.816	81.85419
463.026	33.36978
463.236	-4.56592
463.447	-25.63794
463.657	20.72369
463.867	-12.99502
464.078	50.23254
464.288	14.40096
464.498	98.72115
464.709	107.15516
464.919	54.44846
465.129	-12.99502
465.339	-6.67324
465.55	35.47754
465.76	54.44846
465.97	54.44846
466.18	-0.35123
466.391	52.34049
466.601	71.31307
466.811	83.96248
467.021	-12.99502
467.231	109.26371
467.441	54.44846
467.651	24.93896
467.862	105.04662
468.072	46.01671
468.282	67.09678
468.492	43.90883
468.702	37.58533
468.912	48.12461
469.122	48.12461
469.332	73.42125
469.542	60.77252
469.752	54.44846
469.962	5.97099
470.172	46.01671
470.382	56.55646
470.592	105.04662
470.802	113.4809
471.012	-10.88778
471.222	130.35049
471.432	79.74592
471.642	46.01671
471.852	100.82962
472.062	-4.56592
472.272	83.96248
472.482	22.83131
472.691	189.40476
472.901	35.47754
473.111	130.35049
473.321	35.47754
473.531	105.04662
473.741	48.12461
473.95	143.00359
474.16	54.44846
474.37	115.58952
474.58	124.02423
474.79	98.72115
474.999	134.5681
475.209	185.18606
475.419	113.4809
475.628	159.87558
475.838	132.45929
476.048	178.85816
476.258	121.91552
476.467	113.4809
476.677	212.60907
476.886	149.33043
477.096	208.38993
477.306	180.96744
477.515	115.58952
477.725	195.73297
477.935	172.53045
478.144	147.22146
478.354	126.13296
478.563	164.09378
478.773	109.26371
478.982	229.48645
479.192	155.65745
479.401	208.38993
479.611	180.96744
479.82	204.17086
480.03	240.03545
480.239	172.53045
480.449	180.96744
480.658	299.11864
480.868	221.0476
481.077	250.58493
481.287	286.45672
481.496	223.15728
481.705	214.71868
481.915	237.92561
482.124	284.34646
482.333	377.21465
482.543	214.71868
482.752	316.00221
482.961	316.00221
483.171	417.32708
483.38	299.11864
483.589	379.32569
483.799	383.5478
484.008	343.44047
484.217	343.44047
484.426	337.1083
484.636	292.78759
484.845	423.66115
485.054	408.88187
485.263	394.10337
485.472	436.32974
485.682	493.34525
485.891	404.65936
486.1	461.6686
486.309	503.90488
486.518	391.99222
486.727	400.43691
486.936	480.67419
487.146	495.45715
487.355	510.24083
487.564	501.79293
487.773	586.28206
487.982	560.93302
488.191	560.93302
488.4	493.34525
488.609	687.69643
488.818	598.95729
489.027	653.88854
489.236	611.63298
489.445	689.80952
489.654	675.01812
489.863	738.41367
490.072	689.80952
490.281	763.77459
490.49	687.69643
490.698	753.20736
490.907	744.75376
491.116	687.69643
491.325	653.88854
491.534	776.4556
491.743	729.96036
491.952	892.71381
492.16	920.19678
492.369	907.51217
492.578	820.84188
492.787	947.68104
492.996	918.08266
493.204	1085.11906
493.413	956.13798
493.622	1074.54603
493.831	835.63822
494.039	962.48076
494.248	949.79526
494.457	1036.48424
494.665	1078.77523
494.874	1182.39643
495.083	1102.03617
495.291	1063.97313
495.5	1059.74401
495.709	1135.87131
495.917	1118.9536
496.126	1228.92332
496.335	1178.16679
496.543	1271.22178
496.752	1347.3613
496.96	1247.95749
497.169	1283.91152
497.377	1309.29123
497.586	1330.44121
497.794	1457.34346
498.003	1315.63621
498.211	1400.23711
498.42	1178.16679
498.628	1529.25502
498.837	1389.6619
499.045	1508.10463
499.254	1486.95417
499.462	1601.16545
499.671	1425.61768
499.879	1651.92449
500.087	1584.2455
500.296	1677.3035
500.504	1328.3262
500.713	1601.16545
500.921	1556.75038
501.129	1770.35605
501.338	1601.16545
501.546	1833.79675
501.754	1527.13999
501.962	1823.22358
502.171	1829.5675
502.379	1920.49217
502.587	1897.23328
502.795	1967.00788
503.004	1664.61404
503.212	1996.60726
503.42	1884.54634
503.628	1950.09341
503.837	1821.10893
504.045	2051.57414
504.253	1931.06417
504.461	1956.43638
504.669	1969.12216
504.877	2032.54766
505.085	2009.29232
505.294	2076.9419
505.502	2015.63477
505.71	2252.37152
505.918	2087.51149
506.126	2396.05123
506.334	1994.49306
506.542	2396.05123
506.75	2038.88988
506.958	2134.01546
507.166	2176.2885
507.374	2341.1202
507.582	2091.73927
507.79	2421.40167
507.998	2155.15239
508.206	2535.4593
508.414	2197.4238
508.622	2393.93863
508.83	2328.44285
509.037	2412.95169
509.245	2235.46516
509.453	2438.30112
509.661	2347.45874
509.869	2655.81674
510.077	2514.33998
510.285	2598.81023
510.492	2514.33998
510.7	2508.00397
510.908	2425.6266
511.116	2446.75059
511.324	2497.44371
511.531	2643.14941
511.739	2450.97525
511.947	2674.81689
512.155	2634.70427
512.362	2784.57493
512.57	2746.58581
512.778	2738.14319
512.985	2725.47887
513.193	2799.34729
513.401	2630.48163
513.608	2930.15822
513.816	2909.06341
514.024	2820.44949
514.231	2940.70508
514.439	2868.97927
514.646	2822.55963
514.854	2999.76062
515.061	2898.51545
515.269	3088.32153
515.477	2953.36083
515.684	2852.10019
515.892	2826.77988
516.099	3090.42979
516.307	3071.4549
516.514	3235.86075
516.722	2980.77976
516.929	3231.64646
517.136	3252.71725
517.344	3193.71484
517.551	3008.19616
517.759	3341.19608
517.966	3136.80745
518.173	3322.23887
518.381	3328.55809
518.588	3480.17214
518.796	3031.39264
519.003	3553.83979
519.21	3223.21768
519.418	3526.48014
519.625	3318.02597
519.832	3450.69884
520.039	3128.37573
520.247	3539.10805
520.454	3543.31721
520.661	3595.92545
520.868	3570.67495
521.076	3736.85747
521.283	3616.96548
521.49	3747.37133
521.697	3408.58805
521.904	3638.00364
522.112	3669.55732
522.319	3820.95472
522.526	3677.97091
522.733	3837.7704
522.94	3804.13778
523.147	3770.50012
523.354	3627.4848
523.561	3818.85267
523.768	3837.7704
523.975	3846.17776
524.183	3688.48747
524.39	4054.15741
524.597	3867.19478
524.804	4182.20608
525.011	4056.25719
525.218	3890.3112
525.425	4075.15432
525.632	4024.75827
525.838	3997.45546
526.045	4249.34782
526.252	4058.35696
526.459	4295.49509
526.666	4291.30031
526.873	4435.97015
527.08	4142.33042
527.287	4408.72143
527.494	4060.4567
527.701	4433.87423
527.907	4173.81184
528.114	4335.34118
528.321	4362.59981
528.528	4461.11953
528.735	4471.59751
528.941	4215.77967
529.148	4213.68148
529.355	4450.64101
529.562	4217.87784
529.768	4538.6435
529.975	4249.34782
530.182	4567.969
530.388	4415.00992
530.595	4459.02387
530.802	4450.64101
531.008	4919.53133
531.215	4844.25044
531.422	4898.62295
531.628	4685.22725
531.835	4860.98209
532.042	4614.04311
532.248	5019.85956
532.455	4854.70789
532.661	5138.9302
532.868	4992.69257
533.074	4988.51269
533.281	5080.44877
533.487	5170.25205
533.694	4819.15024
533.9	5218.2687
534.107	4988.51269
534.313	5362.24451
534.52	4925.80339
534.726	5028.21785
534.933	5097.15961
535.139	5322.61011
535.345	4980.15265
535.552	5214.09383
535.758	5128.48843
535.965	5203.65624
536.171	5074.18182
536.377	5495.68747
536.584	5437.31802
536.79	5360.1587
536.996	5395.61427
537.203	5510.27695
537.409	5255.83834
537.615	5531.11706
537.821	5174.4279
538.028	5587.3736
538.234	5449.82731
538.44	5618.61981
538.646	5370.58751
538.853	5543.62
539.059	5262.09922
539.265	5533.20094
539.471	5739.38853
539.677	5672.76733
539.883	5616.53689
540.09	5816.38918
540.296	5672.76733
540.502	5841.35542
540.708	5624.86841
540.914	5907.91545
541.12	5949.50321
541.326	5922.47224
541.532	5581.12372
541.738	5999.39607
541.944	5787.2576
542.15	6186.37352
542.356	5828.87272
542.562	6086.67592
542.768	5912.07465
542.974	6061.74305
543.18	6344.11755
543.386	6339.96812
543.592	6202.98452
543.798	6366.93773
544.004	6161.45419
544.21	6167.68434
544.415	6155.22383
544.621	6425.01274
544.827	6072.13216
545.033	6412.56963
545.239	6302.61906
545.445	6514.16385
545.651	6335.8186
545.856	6642.63192
546.062	6283.9417
546.268	6597.05664
546.474	6302.61906
546.679	6628.13191
546.885	6271.48907
547.091	6422.93895
547.297	6302.61906
547.502	6700.62071
547.708	6487.21572
547.914	6626.06038
548.119	6454.0434
548.325	6725.46753
548.531	6634.34634
548.736	6771.01147
548.942	6456.11684
549.147	6574.26481
549.353	6758.5915
549.559	6812.40546
549.764	6733.74907
549.97	6717.18562
550.175	6559.75947
550.381	6882.75431
550.586	6692.3377
550.792	6866.20401
550.997	6936.53279
551.203	6928.26018
551.408	6853.79032
551.614	7163.88874
551.819	6891.02892
552.025	7149.4287
552.23	7089.51117
552.435	7190.74022
552.641	7070.91226
552.846	7248.56147
553.052	7194.87089
553.257	7196.93619
553.462	7304.3013
553.668	7390.97592
553.873	7219.65302
554.078	7333.19713
554.283	7192.80557
554.489	7504.42038
554.694	7304.3013
554.899	7683.73616
555.105	7411.60707
555.31	7512.66833
555.515	7279.53002
555.72	7498.23419
555.925	7388.91269
556.131	7576.57834
556.336	7380.65954
556.541	7421.92182
556.746	7502.35834
556.951	7483.79898
557.156	7481.73672
557.361	7908.17081
557.567	7967.8413
557.772	7838.19024
557.977	7638.40717
558.182	7904.05497
558.387	7741.41281
558.592	7772.30424
558.797	7683.73616
559.002	7924.63336
559.207	7677.55554
559.412	7731.11462
559.617	7714.63642
559.822	7813.48549
560.027	7782.60034
560.232	7856.71683
560.437	7867.00866
560.642	7996.64157
560.847	7918.46006
561.051	8041.89109
561.256	7698.15687
561.461	8142.63895
561.666	7932.86414
561.871	8099.46721
562.076	8161.13842
562.281	8352.20572
562.485	8111.8029
562.69	8278.26437
562.895	8074.79367
563.1	8046.0042
563.305	8058.34303
563.509	8327.56141
563.714	8259.77507
563.919	8304.96833
564.123	8350.15213
564.328	8120.02629
564.533	8218.68201
564.737	8292.64384
564.942	8284.42712
565.147	8461.01805
565.351	8284.42712
565.556	8362.47335
565.761	8130.30507
565.965	8518.48206
566.17	8274.15577
566.374	8686.68445
566.579	8403.53904
566.784	8596.44517
566.988	8448.70239
567.193	8647.72191
567.397	8510.27383
567.602	8742.0408
567.806	8307.02235
568.011	8530.79384
568.215	8998.14804
568.42	8828.12418
568.624	8785.0865
568.828	8850.66454
569.033	8653.87433
569.237	9026.81474
569.442	8803.5322
569.646	8942.85251
569.85	8830.17339
570.055	9145.54053
570.259	8842.46829
570.463	9213.06565
570.668	8852.71355
570.872	8752.29051
571.076	8871.15388
571.281	9204.88177
571.485	8934.65949
571.689	8824.02569
571.893	8815.82851
572.098	9206.92777
572.302	9016.57703
572.506	9174.18981
572.71	8998.14804
572.914	9253.981
573.119	9010.43419
573.323	9151.67994
573.527	9055.47802
573.731	9393.04332
573.935	9061.61971
574.139	9213.06565
574.343	8989.95692
574.547	9472.76546
574.751	9301.02536
574.955	9227.38679
575.159	9525.89994
575.364	9374.6424
575.568	9188.5132
575.772	9292.84437
575.976	9071.85551
576.18	9350.10576
576.383	9393.04332
576.587	9321.47669
576.791	9366.46378
576.995	9509.55202
