Data from mixed_try1_USB4F045381__14__00079.txt Node

Date: Thu Apr 03 19:52:13 EDT 2025
User: mmckonesweet
Spectrometer: USB4F04538
Trigger mode: 4
Integration Time (sec): 2.700000E-3
Scans to average: 1
Electric dark correction enabled: true
Nonlinearity correction enabled: true
Boxcar width: 0
XAxis mode: Wavelengths
Number of Pixels in Spectrum: 3648
>>>>>Begin Spectral Data<<<<<
345.52	-12.99502
345.736	-12.99502
345.952	-12.99502
346.168	-27.74501
346.384	3.86356
346.6	-31.95906
346.816	27.04663
347.032	50.23254
347.248	-6.67324
347.464	3.86356
347.68	-6.67324
347.896	-23.53085
348.112	-19.31659
348.328	29.15432
348.544	-38.27997
348.76	-27.74501
348.975	43.90883
349.191	48.12461
349.407	-31.95906
349.623	-15.10224
349.839	5.97099
350.055	3.86356
350.27	-25.63794
350.486	-2.45859
350.702	18.61609
350.918	-12.99502
351.133	-2.45859
351.349	43.90883
351.565	18.61609
351.781	54.44846
351.996	-48.81431
352.212	24.93896
352.428	12.29343
352.644	27.04663
352.859	-40.38689
353.075	71.31307
353.291	67.09678
353.506	-15.10224
353.722	41.80097
353.938	27.04663
354.153	-10.88778
354.369	-12.99502
354.584	-15.10224
354.8	10.18593
355.016	48.12461
355.231	-19.31659
355.447	64.98867
355.662	56.55646
355.878	-17.20943
356.093	-21.42373
356.309	50.23254
356.524	60.77252
356.74	60.77252
356.955	-53.02787
357.171	-23.53085
357.386	10.18593
357.602	52.34049
357.817	-21.42373
358.033	-2.45859
358.248	37.58533
358.464	-40.38689
358.679	-44.60065
358.895	-25.63794
359.11	43.90883
359.325	39.69314
359.541	-31.95906
359.756	43.90883
359.972	-10.88778
360.187	3.86356
360.402	22.83131
360.618	-34.06606
360.833	-23.53085
361.048	43.90883
361.264	37.58533
361.479	5.97099
361.694	-44.60065
361.909	-31.95906
362.125	50.23254
362.34	48.12461
362.555	35.47754
362.77	-21.42373
362.986	10.18593
363.201	31.26204
363.416	-82.51994
363.631	-57.24133
363.847	64.98867
364.062	8.07845
364.277	-23.53085
364.492	10.18593
364.707	43.90883
364.922	-19.31659
365.138	58.66448
365.353	-17.20943
365.568	-23.53085
365.783	-15.10224
365.998	-6.67324
366.213	20.72369
366.428	-21.42373
366.643	14.40096
366.858	-57.24133
367.073	43.90883
367.288	5.97099
367.503	-86.73269
367.718	8.07845
367.933	3.86356
368.148	-38.27997
368.363	-2.45859
368.578	-2.45859
368.793	37.58533
369.008	14.40096
369.223	62.88058
369.438	54.44846
369.653	62.88058
369.868	-38.27997
370.083	35.47754
370.298	18.61609
370.513	-38.27997
370.728	37.58533
370.943	-25.63794
371.157	60.77252
371.372	10.18593
371.587	41.80097
371.802	62.88058
372.017	-19.31659
372.232	35.47754
372.446	-31.95906
372.661	-19.31659
372.876	-10.88778
373.091	-6.67324
373.306	33.36978
373.52	41.80097
373.735	-34.06606
373.95	-6.67324
374.165	54.44846
374.379	73.42125
374.594	3.86356
374.809	-0.35123
375.023	29.15432
375.238	105.04662
375.453	37.58533
375.667	-29.85205
375.882	-38.27997
376.097	-12.99502
376.311	96.6127
376.526	73.42125
376.741	69.20492
376.955	98.72115
377.17	37.58533
377.384	24.93896
377.599	18.61609
377.813	20.72369
378.028	-0.35123
378.242	35.47754
378.457	18.61609
378.672	-6.67324
378.886	-31.95906
379.101	33.36978
379.315	29.15432
379.53	14.40096
379.744	69.20492
379.958	46.01671
380.173	48.12461
380.387	-21.42373
380.602	27.04663
380.816	-21.42373
381.031	46.01671
381.245	5.97099
381.459	14.40096
381.674	69.20492
381.888	-46.70749
382.103	1.75615
382.317	-8.78052
382.531	43.90883
382.746	-15.10224
382.96	-29.85205
383.174	-19.31659
383.388	43.90883
383.603	16.50851
383.817	27.04663
384.031	-10.88778
384.246	-10.88778
384.46	22.83131
384.674	-53.02787
384.888	39.69314
385.103	-53.02787
385.317	48.12461
385.531	18.61609
385.745	18.61609
385.959	18.61609
386.174	-15.10224
386.388	43.90883
386.602	-6.67324
386.816	73.42125
387.03	130.35049
387.244	-23.53085
387.458	-12.99502
387.672	10.18593
387.887	10.18593
388.101	-55.13461
388.315	-23.53085
388.529	62.88058
388.743	102.93811
388.957	-6.67324
389.171	14.40096
389.385	14.40096
389.599	27.04663
389.813	29.15432
390.027	-15.10224
390.241	48.12461
390.455	10.18593
390.669	-21.42373
390.883	-69.8811
391.097	-48.81431
391.311	-17.20943
391.525	35.47754
391.738	18.61609
391.952	-19.31659
392.166	-21.42373
392.38	5.97099
392.594	14.40096
392.808	60.77252
393.022	69.20492
393.236	18.61609
393.449	-12.99502
393.663	92.39587
393.877	31.26204
394.091	29.15432
394.305	12.29343
394.518	102.93811
394.732	60.77252
394.946	41.80097
395.16	-8.78052
395.373	54.44846
395.587	27.04663
395.801	-6.67324
396.015	43.90883
396.228	22.83131
396.442	60.77252
396.656	-15.10224
396.869	-36.17303
397.083	3.86356
397.297	-90.94533
397.51	46.01671
397.724	-15.10224
397.938	50.23254
398.151	64.98867
398.365	3.86356
398.578	39.69314
398.792	86.0708
399.005	-19.31659
399.219	18.61609
399.433	3.86356
399.646	27.04663
399.86	-25.63794
400.073	-27.74501
400.287	-15.10224
400.5	-38.27997
400.714	83.96248
400.927	90.28749
401.141	10.18593
401.354	-6.67324
401.567	-48.81431
401.781	-2.45859
401.994	31.26204
402.208	5.97099
402.421	29.15432
402.635	-23.53085
402.848	-15.10224
403.061	-2.45859
403.275	-0.35123
403.488	86.0708
403.701	64.98867
403.915	-12.99502
404.128	12.29343
404.341	-10.88778
404.555	-27.74501
404.768	14.40096
404.981	18.61609
405.195	62.88058
405.408	-6.67324
405.621	111.37229
405.834	-17.20943
406.048	-23.53085
406.261	5.97099
406.474	43.90883
406.687	16.50851
406.9	-6.67324
407.114	16.50851
407.327	62.88058
407.54	52.34049
407.753	-23.53085
407.966	-19.31659
408.179	1.75615
408.392	39.69314
408.605	27.04663
408.819	79.74592
409.032	50.23254
409.245	79.74592
409.458	12.29343
409.671	16.50851
409.884	-23.53085
410.097	-15.10224
410.31	71.31307
410.523	43.90883
410.736	-15.10224
410.949	52.34049
411.162	5.97099
411.375	5.97099
411.588	10.18593
411.801	35.47754
412.014	-40.38689
412.227	20.72369
412.44	75.52945
412.653	27.04663
412.865	77.63768
413.078	56.55646
413.291	-55.13461
413.504	-40.38689
413.717	-4.56592
413.93	3.86356
414.143	33.36978
414.356	-53.02787
414.568	18.61609
414.781	39.69314
414.994	-40.38689
415.207	-19.31659
415.42	102.93811
415.632	56.55646
415.845	-12.99502
416.058	62.88058
416.271	43.90883
416.483	-27.74501
416.696	-12.99502
416.909	-4.56592
417.121	14.40096
417.334	10.18593
417.547	24.93896
417.759	27.04663
417.972	-29.85205
418.185	64.98867
418.397	20.72369
418.61	-67.77453
418.823	-6.67324
419.035	20.72369
419.248	-19.31659
419.46	10.18593
419.673	-6.67324
419.885	-12.99502
420.098	16.50851
420.311	3.86356
420.523	22.83131
420.736	-2.45859
420.948	33.36978
421.161	22.83131
421.373	113.4809
421.586	-10.88778
421.798	1.75615
422.01	10.18593
422.223	35.47754
422.435	22.83131
422.648	-0.35123
422.86	-27.74501
423.073	27.04663
423.285	35.47754
423.497	46.01671
423.71	46.01671
423.922	3.86356
424.134	56.55646
424.347	-6.67324
424.559	37.58533
424.771	-6.67324
424.984	22.83131
425.196	60.77252
425.408	94.50427
425.621	-15.10224
425.833	3.86356
426.045	1.75615
426.257	-6.67324
426.47	12.29343
426.682	-34.06606
426.894	-6.67324
427.106	10.18593
427.318	-2.45859
427.531	-0.35123
427.743	12.29343
427.955	-2.45859
428.167	5.97099
428.379	46.01671
428.591	105.04662
428.804	22.83131
429.016	33.36978
429.228	35.47754
429.44	48.12461
429.652	-6.67324
429.864	3.86356
430.076	3.86356
430.288	18.61609
430.5	-46.70749
430.712	-10.88778
430.924	-15.10224
431.136	60.77252
431.348	18.61609
431.56	52.34049
431.772	56.55646
431.984	10.18593
432.196	-44.60065
432.408	12.29343
432.62	-40.38689
432.832	33.36978
433.044	29.15432
433.256	83.96248
433.468	18.61609
433.679	14.40096
433.891	10.18593
434.103	18.61609
434.315	37.58533
434.527	29.15432
434.739	-57.24133
434.95	71.31307
435.162	18.61609
435.374	35.47754
435.586	46.01671
435.798	14.40096
436.009	37.58533
436.221	52.34049
436.433	46.01671
436.645	18.61609
436.856	31.26204
437.068	18.61609
437.28	56.55646
437.491	39.69314
437.703	-8.78052
437.915	18.61609
438.126	33.36978
438.338	41.80097
438.55	-19.31659
438.761	39.69314
438.973	48.12461
439.184	3.86356
439.396	52.34049
439.608	14.40096
439.819	-31.95906
440.031	-4.56592
440.242	52.34049
440.454	46.01671
440.665	18.61609
440.877	-31.95906
441.088	14.40096
441.3	24.93896
441.511	14.40096
441.723	69.20492
441.934	14.40096
442.146	56.55646
442.357	-23.53085
442.569	138.7858
442.78	-0.35123
442.991	-57.24133
443.203	18.61609
443.414	71.31307
443.626	39.69314
443.837	1.75615
444.048	-38.27997
444.26	18.61609
444.471	43.90883
444.682	-48.81431
444.894	52.34049
445.105	10.18593
445.316	27.04663
445.528	-4.56592
445.739	50.23254
445.95	10.18593
446.161	77.63768
446.373	16.50851
446.584	18.61609
446.795	-31.95906
447.006	22.83131
447.217	-53.02787
447.429	3.86356
447.64	35.47754
447.851	71.31307
448.062	-57.24133
448.273	-2.45859
448.484	12.29343
448.695	-31.95906
448.907	12.29343
449.118	14.40096
449.329	-27.74501
449.54	22.83131
449.751	50.23254
449.962	-36.17303
450.173	54.44846
450.384	1.75615
450.595	43.90883
450.806	-40.38689
451.017	43.90883
451.228	48.12461
451.439	-12.99502
451.65	83.96248
451.861	-10.88778
452.072	69.20492
452.283	75.52945
452.494	67.09678
452.705	29.15432
452.915	-23.53085
453.126	43.90883
453.337	-6.67324
453.548	-23.53085
453.759	18.61609
453.97	37.58533
454.181	10.18593
454.391	60.77252
454.602	-10.88778
454.813	79.74592
455.024	-6.67324
455.235	52.34049
455.445	35.47754
455.656	18.61609
455.867	-2.45859
456.078	56.55646
456.288	96.6127
456.499	43.90883
456.71	10.18593
456.921	5.97099
457.131	1.75615
457.342	35.47754
457.553	29.15432
457.763	-31.95906
457.974	64.98867
458.184	1.75615
458.395	50.23254
458.606	1.75615
458.816	16.50851
459.027	88.17913
459.237	37.58533
459.448	10.18593
459.659	94.50427
459.869	-25.63794
460.08	50.23254
460.29	43.90883
460.501	-10.88778
460.711	50.23254
460.922	-48.81431
461.132	77.63768
461.343	5.97099
461.553	60.77252
461.764	-10.88778
461.974	35.47754
462.184	-8.78052
462.395	-40.38689
462.605	-42.49378
462.816	-46.70749
463.026	12.29343
463.236	52.34049
463.447	-40.38689
463.657	39.69314
463.867	52.34049
464.078	-40.38689
464.288	-23.53085
464.498	41.80097
464.709	54.44846
464.919	-23.53085
465.129	35.47754
465.339	64.98867
465.55	3.86356
465.76	-6.67324
465.97	14.40096
466.18	14.40096
466.391	35.47754
466.601	-31.95906
466.811	69.20492
467.021	27.04663
467.231	5.97099
467.441	3.86356
467.651	35.47754
467.862	-31.95906
468.072	37.58533
468.282	-23.53085
468.492	20.72369
468.702	1.75615
468.912	52.34049
469.122	52.34049
469.332	12.29343
469.542	48.12461
469.752	-63.56133
469.962	-10.88778
470.172	-97.26409
470.382	60.77252
470.592	121.91552
470.802	29.15432
471.012	5.97099
471.222	10.18593
471.432	22.83131
471.642	29.15432
471.852	50.23254
472.062	10.18593
472.272	92.39587
472.482	-40.38689
472.691	-12.99502
472.901	27.04663
473.111	-6.67324
473.321	115.58952
473.531	41.80097
473.741	52.34049
473.95	5.97099
474.16	35.47754
474.37	119.80683
474.58	35.47754
474.79	1.75615
474.999	52.34049
475.209	41.80097
475.419	77.63768
475.628	22.83131
475.838	3.86356
476.048	18.61609
476.258	20.72369
476.467	-40.38689
476.677	88.17913
476.886	83.96248
477.096	-2.45859
477.306	35.47754
477.515	54.44846
477.725	62.88058
477.935	-40.38689
478.144	69.20492
478.354	62.88058
478.563	35.47754
478.773	-23.53085
478.982	43.90883
479.192	69.20492
479.401	18.61609
479.611	-2.45859
479.82	1.75615
480.03	54.44846
480.239	39.69314
480.449	43.90883
480.658	35.47754
480.868	52.34049
481.077	79.74592
481.287	43.90883
481.496	56.55646
481.705	60.77252
481.915	96.6127
482.124	5.97099
482.333	111.37229
482.543	22.83131
482.752	-15.10224
482.961	56.55646
483.171	39.69314
483.38	5.97099
483.589	90.28749
483.799	71.31307
484.008	81.85419
484.217	-40.38689
484.426	60.77252
484.636	-15.10224
484.845	27.04663
485.054	10.18593
485.263	54.44846
485.472	60.77252
485.682	71.31307
485.891	22.83131
486.1	77.63768
486.309	60.77252
486.518	-2.45859
486.727	27.04663
486.936	22.83131
487.146	96.6127
487.355	-6.67324
487.564	52.34049
487.773	52.34049
487.982	75.52945
488.191	62.88058
488.4	-0.35123
488.609	67.09678
488.818	48.12461
489.027	77.63768
489.236	54.44846
489.445	62.88058
489.654	100.82962
489.863	132.45929
490.072	12.29343
490.281	86.0708
490.49	-15.10224
490.698	102.93811
490.907	128.24171
491.116	113.4809
491.325	22.83131
491.534	-6.67324
491.743	98.72115
491.952	46.01671
492.16	197.84241
492.369	31.26204
492.578	136.67694
492.787	60.77252
492.996	54.44846
493.204	98.72115
493.413	94.50427
493.622	117.69816
493.831	111.37229
494.039	130.35049
494.248	39.69314
494.457	64.98867
494.665	105.04662
494.874	117.69816
495.083	115.58952
495.291	124.02423
495.5	81.85419
495.709	157.7665
495.917	157.7665
496.126	77.63768
496.335	88.17913
496.543	166.20292
496.752	102.93811
496.96	143.00359
497.169	136.67694
497.377	86.0708
497.586	187.2954
497.794	153.54842
498.003	147.22146
498.211	166.20292
498.42	199.95188
498.628	147.22146
498.837	140.89469
499.045	140.89469
499.254	172.53045
499.462	145.11251
499.671	124.02423
499.879	191.51415
500.087	153.54842
500.296	174.63967
500.504	113.4809
500.713	174.63967
500.921	145.11251
501.129	113.4809
501.338	161.98467
501.546	130.35049
501.754	149.33043
501.962	187.2954
502.171	161.98467
502.379	170.42125
502.587	210.49949
502.795	280.12601
503.004	183.07674
503.212	229.48645
503.42	187.2954
503.628	155.65745
503.837	155.65745
504.045	153.54842
504.253	218.93794
504.461	208.38993
504.669	187.2954
504.877	195.73297
505.085	204.17086
505.294	212.60907
505.502	168.31207
505.71	252.69488
505.918	343.44047
506.126	212.60907
506.334	212.60907
506.542	263.24494
506.75	183.07674
506.958	233.70599
507.166	191.51415
507.374	216.8283
507.582	248.47499
507.79	288.56699
507.998	212.60907
508.206	286.45672
508.414	178.85816
508.622	290.67728
508.83	275.90563
509.037	288.56699
509.245	267.46509
509.453	208.38993
509.661	297.00827
509.869	349.77279
510.077	240.03545
510.285	280.12601
510.492	250.58493
510.7	256.91485
510.908	309.67074
511.116	311.78121
511.324	290.67728
511.531	303.33942
511.739	301.22902
511.947	250.58493
512.155	284.34646
512.362	271.68532
512.57	273.79547
512.778	389.88109
512.985	358.21613
513.193	339.219
513.401	280.12601
513.608	349.77279
513.816	322.33385
514.024	326.55503
514.231	221.0476
514.439	334.99761
514.646	457.4453
514.854	419.43842
515.061	372.99264
515.269	349.77279
515.477	316.00221
515.684	440.55273
515.892	375.10364
516.099	406.7706
516.307	366.65975
516.514	381.43673
516.722	410.99314
516.929	419.43842
517.136	356.10527
517.344	453.22206
517.551	332.88694
517.759	451.11047
517.966	370.88166
518.173	434.21827
518.381	461.6686
518.588	499.68099
518.796	408.88187
519.003	525.02522
519.21	535.58592
519.418	484.89782
519.625	470.11538
519.832	506.01685
520.039	510.24083
520.247	468.00366
520.454	434.21827
520.661	571.49488
520.868	476.45062
521.076	558.82068
521.283	391.99222
521.49	575.71972
521.697	537.6981
521.904	541.92251
522.112	491.23337
522.319	641.21136
522.526	491.23337
522.733	592.61962
522.94	584.16957
523.147	501.79293
523.354	533.47375
523.561	541.92251
523.768	660.22729
523.975	617.971
524.183	525.02522
524.39	702.4883
524.597	672.90511
524.804	584.16957
525.011	609.52034
525.218	736.30033
525.425	702.4883
525.632	725.73377
525.838	615.85832
526.045	715.16749
526.252	679.24418
526.459	795.47777
526.666	748.98054
526.873	846.2073
527.08	721.50723
527.287	662.34023
527.494	677.13115
527.701	829.29687
527.907	791.25055
528.114	829.29687
528.321	719.39397
528.528	761.66112
528.735	742.64038
528.941	772.22855
529.148	744.75376
529.355	784.9098
529.562	780.68268
529.768	896.94188
529.975	803.93232
530.182	890.59979
530.388	833.52443
530.595	789.13696
530.802	822.95561
531.008	841.97964
531.215	867.34612
531.422	1017.45403
531.628	816.61443
531.835	915.96855
532.042	871.57399
532.248	977.28082
532.455	979.39514
532.661	966.70931
532.868	956.13798
533.074	1044.94226
533.281	947.68104
533.487	1057.62946
533.694	1125.29771
533.9	1023.79738
534.107	1042.82774
534.313	1178.16679
534.52	1057.62946
534.726	1002.65311
534.933	1006.88191
535.139	1154.90408
535.345	998.42433
535.552	1159.13363
535.758	928.65334
535.965	1192.97058
536.171	1104.15084
536.377	1256.4172
536.584	1091.46294
536.79	1184.51125
536.996	1121.0683
537.203	1159.13363
537.409	1152.78931
537.615	1277.56664
537.821	1123.183
538.028	1315.63621
538.234	1226.80843
538.44	1224.69354
538.646	1099.92152
538.853	1404.4672
539.059	1302.94628
539.265	1457.34346
539.471	1412.92739
539.677	1353.70636
539.883	1309.29123
540.09	1347.3613
540.296	1429.84778
540.502	1560.98041
540.708	1372.74161
540.914	1501.7595
541.12	1237.38293
541.326	1537.71515
541.532	1463.68862
541.738	1556.75038
541.944	1482.72408
542.15	1480.60903
542.356	1417.15749
542.562	1429.84778
542.768	1491.18427
542.974	1730.17507
543.18	1446.7682
543.386	1677.3035
543.592	1366.39652
543.798	1510.21968
544.004	1582.1305
544.21	1643.46474
544.415	1522.90992
544.621	1736.51952
544.827	1544.06024
545.033	1687.87797
545.239	1569.44047
545.445	1886.66085
545.651	1618.08527
545.856	1831.68213
546.062	1802.07688
546.268	1709.02668
546.474	1715.37123
546.679	1738.63433
546.885	1692.10773
547.091	1886.66085
547.297	1704.79696
547.502	1768.24129
547.708	1854.94276
547.914	1973.35071
548.119	1738.63433
548.325	1812.65028
548.531	1742.86394
548.736	1912.03447
548.942	1747.09354
549.147	1871.85921
549.353	1890.88984
549.559	1988.15042
549.764	1893.00432
549.97	1912.03447
550.175	1882.43183
550.381	2129.78798
550.586	1933.17855
550.792	2083.28367
550.997	1914.1489
551.203	2140.35662
551.408	1981.80772
551.614	2053.68816
551.819	2108.65012
552.025	2343.23306
552.23	2102.30861
552.435	2165.72055
552.641	2060.03017
552.846	2229.12513
553.052	2148.81139
553.257	2334.78157
553.462	2212.21799
553.668	2355.90999
553.873	2319.99109
554.078	2227.01177
554.283	2148.81139
554.489	2355.90999
554.694	2258.71126
554.899	2290.40871
555.105	2284.06939
555.31	2368.58657
555.515	2328.44285
555.72	2469.98572
555.925	2184.74272
556.131	2482.65887
556.336	2364.36109
556.541	2651.59435
556.746	2201.65075
556.951	2522.78785
557.156	2423.51414
557.361	2463.649
557.567	2541.79487
557.772	2482.65887
557.977	2467.87349
558.182	2541.79487
558.387	2573.47114
558.592	2630.48163
558.797	2554.4657
559.002	2472.09794
559.207	2676.92796
559.412	2740.25387
559.617	2484.77103
559.822	2666.37251
560.027	2503.7799
560.232	2647.37191
560.437	2546.01853
560.642	2727.58963
560.847	2622.03619
561.051	2807.78833
561.256	2643.14941
561.461	2849.99024
561.666	2579.80608
561.871	2885.85743
562.076	2875.30869
562.281	3022.95777
562.485	2742.36453
562.69	2814.11897
562.895	2727.58963
563.1	2995.54276
563.305	2902.73468
563.509	3031.39264
563.714	2767.69141
563.919	2932.26763
564.123	2765.58091
564.328	2951.25157
564.533	2740.25387
564.737	3010.30501
564.942	2894.29617
565.147	3174.74703
565.351	2928.04881
565.556	2894.29617
565.761	2989.21585
565.965	2959.6885
566.17	2925.93938
566.374	3130.48368
566.579	2883.74771
566.784	3119.94374
566.988	3202.14455
567.193	3145.23892
567.397	2953.36083
567.602	3094.64626
567.806	2852.10019
568.011	3271.67953
568.215	3136.80745
568.42	3242.18207
568.624	2987.10685
568.828	3307.49341
569.033	3242.18207
569.237	3216.89591
569.442	3149.45456
569.646	3197.92973
569.85	3141.02322
570.055	3351.72725
570.259	3263.25202
570.463	3259.03816
570.668	3265.35892
570.872	3465.43593
571.076	3187.39239
571.281	3528.58484
571.485	3358.04575
571.689	3457.01485
571.893	3351.72725
572.098	3450.69884
572.302	3237.96787
572.506	3600.13361
572.71	3343.30235
572.914	3593.82135
573.119	3395.95342
573.323	3311.70649
573.527	3501.22232
573.731	3486.48738
573.935	3511.74673
574.139	3593.82135
574.343	3385.42408
574.547	3659.0399
574.751	3591.71722
574.955	3583.30053
575.159	3602.23766
575.364	3820.95472
575.568	3587.50891
575.772	3703.20985
575.976	3738.96028
576.18	3720.03428
576.383	3770.50012
576.587	3787.31958
576.791	3688.48747
576.995	3812.54641
577.199	3736.85747
577.403	3793.62655
577.607	3854.58481
577.811	4033.15844
578.015	3696.90037
578.219	4041.55827
578.422	3835.66851
578.626	3911.32402
578.83	3871.39795
579.034	4058.35696
579.238	3772.60262
579.442	3972.2498
579.645	3831.46467
579.849	4146.52822
580.053	4125.5384
