Data from mixed_try1_USB4F045381__5__00070.txt Node

Date: Thu Apr 03 19:51:06 EDT 2025
User: mmckonesweet
Spectrometer: USB4F04538
Trigger mode: 4
Integration Time (sec): 2.700000E-3
Scans to average: 1
Electric dark correction enabled: true
Nonlinearity correction enabled: true
Boxcar width: 0
XAxis mode: Wavelengths
Number of Pixels in Spectrum: 3648
>>>>>Begin Spectral Data<<<<<
345.52	17.73793
345.736	17.73793
345.952	17.73793
346.168	13.52282
346.384	-32.83698
346.6	-24.40881
346.816	11.4153
347.032	21.95313
347.248	26.16843
347.464	-15.98024
347.68	-70.75882
347.896	-11.7658
348.112	-7.55127
348.328	5.09289
348.544	74.65103
348.76	-24.40881
348.975	15.63036
349.191	-24.40881
349.407	9.30781
349.623	95.73419
349.839	-26.51589
350.055	-49.69214
350.27	21.95313
350.486	-39.15785
350.702	-74.97185
350.918	-91.82295
351.133	-41.26476
351.349	24.06077
351.565	17.73793
351.781	-83.39761
351.996	-39.15785
352.212	36.70708
352.428	49.35423
352.644	28.27611
352.859	32.49155
353.075	-11.7658
353.291	0.87808
353.506	-13.87303
353.722	64.1103
353.938	-37.05092
354.153	36.70708
354.369	-24.40881
354.584	89.40901
354.8	-24.40881
355.016	17.73793
355.231	19.84552
355.447	51.46218
355.662	-43.37164
355.878	-5.44397
356.093	-37.05092
356.309	-26.51589
356.524	64.1103
356.74	-34.94396
356.955	78.86748
357.171	-58.11912
357.386	-85.50398
357.602	-56.01241
357.817	-7.55127
358.033	13.52282
358.248	-83.39761
358.464	-20.19457
358.679	5.09289
358.895	30.38382
359.11	32.49155
359.325	-121.30834
359.541	38.81488
359.756	38.81488
359.972	-20.19457
360.187	19.84552
360.402	-53.90568
360.618	59.89417
360.833	-32.83698
361.048	-15.98024
361.264	-96.03546
361.479	-74.97185
361.694	-64.43909
361.909	-49.69214
362.125	-66.54569
362.34	-24.40881
362.555	51.46218
362.77	11.4153
362.986	51.46218
363.201	-64.43909
363.416	51.46218
363.631	9.30781
363.847	-32.83698
364.062	2.98547
364.277	80.97574
364.492	38.81488
364.707	83.08402
364.922	9.30781
365.138	-1.2293
365.353	-62.33245
365.568	-45.4785
365.783	5.09289
365.998	9.30781
366.213	13.52282
366.428	-64.43909
366.643	11.4153
366.858	-7.55127
367.073	-56.01241
367.288	-45.4785
367.503	0.87808
367.718	0.87808
367.933	28.27611
368.148	-45.4785
368.363	-13.87303
368.578	26.16843
368.793	26.16843
369.008	-24.40881
369.223	-53.90568
369.438	-28.62294
369.653	30.38382
369.868	17.73793
370.083	9.30781
370.298	-72.86535
370.513	-58.11912
370.728	5.09289
370.943	-1.2293
371.157	28.27611
371.372	-98.14168
371.587	-39.15785
371.802	-7.55127
372.017	2.98547
372.232	102.05957
372.446	28.27611
372.661	17.73793
372.876	-30.72997
373.091	-28.62294
373.306	36.70708
373.52	9.30781
373.735	47.24632
373.95	-22.3017
374.165	-53.90568
374.379	-66.54569
374.594	47.24632
374.809	19.84552
375.023	83.08402
375.238	0.87808
375.453	13.52282
375.667	43.03055
375.882	26.16843
376.097	-11.7658
376.311	26.16843
376.526	53.57014
376.741	-51.79892
376.955	0.87808
377.17	-28.62294
377.384	-81.29121
377.599	-24.40881
377.813	-51.79892
378.028	11.4153
378.242	34.5993
378.457	-13.87303
378.672	30.38382
378.886	2.98547
379.101	13.52282
379.315	26.16843
379.53	-37.05092
379.744	36.70708
379.958	-24.40881
380.173	129.47183
380.387	-13.87303
380.602	-7.55127
380.816	-7.55127
381.031	-41.26476
381.245	78.86748
381.459	7.20034
381.674	-11.7658
381.888	0.87808
382.103	30.38382
382.317	-43.37164
382.531	-24.40881
382.746	34.5993
382.96	93.62577
383.174	-28.62294
383.388	15.63036
383.603	-37.05092
383.817	30.38382
384.031	-20.19457
384.246	68.32652
384.46	-15.98024
384.674	-15.98024
384.888	-3.33665
385.103	-24.40881
385.317	0.87808
385.531	-41.26476
385.745	-7.55127
385.959	-30.72997
386.174	-13.87303
386.388	-15.98024
386.602	30.38382
386.816	0.87808
387.03	19.84552
387.244	-24.40881
387.458	17.73793
387.672	-32.83698
387.887	-24.40881
388.101	36.70708
388.315	0.87808
388.529	-1.2293
388.743	38.81488
388.957	-15.98024
389.171	-66.54569
389.385	-7.55127
389.599	64.1103
389.813	30.38382
390.027	28.27611
390.241	-13.87303
390.455	5.09289
390.669	-20.19457
390.883	34.5993
391.097	-24.40881
391.311	-9.65855
391.525	28.27611
391.738	28.27611
391.952	19.84552
392.166	-37.05092
392.38	38.81488
392.594	-49.69214
392.808	0.87808
393.022	-53.90568
393.236	9.30781
393.449	-49.69214
393.663	9.30781
393.877	28.27611
394.091	19.84552
394.305	-47.58533
394.518	-5.44397
394.732	-32.83698
394.946	9.30781
395.16	102.05957
395.373	34.5993
395.587	-24.40881
395.801	36.70708
396.015	17.73793
396.228	-18.08741
396.442	15.63036
396.656	9.30781
396.869	-45.4785
397.083	-13.87303
397.297	32.49155
397.51	0.87808
397.724	2.98547
397.938	-58.11912
398.151	15.63036
398.365	34.5993
398.578	57.78613
398.792	34.5993
399.005	11.4153
399.219	7.20034
399.433	53.57014
399.646	28.27611
399.86	51.46218
400.073	-32.83698
400.287	11.4153
400.5	17.73793
400.714	104.16807
400.927	-49.69214
401.141	9.30781
401.354	30.38382
401.567	59.89417
401.781	80.97574
401.994	-22.3017
402.208	7.20034
402.421	89.40901
402.635	-7.55127
402.848	11.4153
403.061	-9.65855
403.275	40.92271
403.488	-1.2293
403.701	-22.3017
403.915	78.86748
404.128	112.60231
404.341	2.98547
404.555	43.03055
404.768	30.38382
404.981	9.30781
405.195	53.57014
405.408	70.43467
405.621	9.30781
405.834	68.32652
406.048	-13.87303
406.261	26.16843
406.474	49.35423
406.687	-32.83698
406.9	17.73793
407.114	68.32652
407.327	-22.3017
407.54	0.87808
407.753	17.73793
407.966	34.5993
408.179	0.87808
408.392	-62.33245
408.605	-9.65855
408.819	-72.86535
409.032	70.43467
409.245	43.03055
409.458	68.32652
409.671	13.52282
409.884	76.75925
410.097	34.5993
410.31	-5.44397
410.523	85.19233
410.736	76.75925
410.949	17.73793
411.162	-83.39761
411.375	43.03055
411.588	62.00222
411.801	-39.15785
412.014	-3.33665
412.227	64.1103
412.44	53.57014
412.653	-24.40881
412.865	45.13842
413.078	28.27611
413.291	-43.37164
413.504	53.57014
413.717	43.03055
413.93	47.24632
414.143	30.38382
414.356	121.0369
414.568	70.43467
414.781	43.03055
414.994	45.13842
415.207	11.4153
415.42	89.40901
415.632	-7.55127
415.845	72.54284
416.058	102.05957
416.271	72.54284
416.483	40.92271
416.696	80.97574
416.909	104.16807
417.121	-11.7658
417.334	51.46218
417.547	78.86748
417.759	-24.40881
417.972	21.95313
418.185	85.19233
418.397	51.46218
418.61	112.60231
418.823	68.32652
419.035	26.16843
419.248	135.79826
419.46	70.43467
419.673	95.73419
419.885	53.57014
420.098	104.16807
420.311	40.92271
420.523	93.62577
420.736	68.32652
420.948	51.46218
421.161	53.57014
421.373	59.89417
421.586	43.03055
421.798	93.62577
422.01	43.03055
422.223	38.81488
422.435	76.75925
422.648	76.75925
422.86	66.2184
423.073	53.57014
423.285	118.92822
423.497	68.32652
423.71	123.1456
423.922	123.1456
424.134	85.19233
424.347	110.49372
424.559	89.40901
424.771	131.58062
424.984	70.43467
425.196	59.89417
425.408	110.49372
425.621	137.90711
425.833	121.0369
426.045	152.66967
426.257	78.86748
426.47	89.40901
426.682	106.2766
426.894	106.2766
427.106	112.60231
427.318	97.84262
427.531	102.05957
427.743	161.10588
427.955	72.54284
428.167	186.41651
428.379	87.30066
428.591	175.87005
428.804	123.1456
429.016	188.52586
429.228	123.1456
429.44	154.77869
429.652	171.65161
429.864	118.92822
430.076	127.36306
430.288	144.23379
430.5	123.1456
430.712	127.36306
430.924	169.54242
431.136	110.49372
431.348	194.85404
431.56	237.04651
431.772	140.01598
431.984	188.52586
432.196	150.56067
432.408	211.73008
432.62	220.16857
432.832	182.19786
433.044	249.70578
433.256	205.40141
433.468	270.8061
433.679	213.83967
433.891	241.26619
434.103	264.47581
434.315	253.9257
434.527	270.8061
434.739	323.56502
434.95	260.25571
435.162	228.60739
435.374	169.54242
435.586	285.57744
435.798	319.34389
436.009	209.6205
436.221	211.73008
436.433	291.9083
436.645	241.26619
436.856	211.73008
437.068	266.58589
437.28	272.91624
437.491	308.79138
437.703	300.34969
437.915	365.78019
438.126	346.78251
438.338	291.9083
438.55	283.46719
438.761	338.33954
438.973	317.23335
439.184	287.68771
439.396	397.44606
439.608	363.66927
439.819	355.22575
440.031	319.34389
440.242	376.33506
440.454	313.01233
440.665	391.11258
440.877	325.67561
441.088	327.78622
441.3	380.55713
441.511	313.01233
441.723	454.45383
441.934	332.0075
442.146	359.44748
442.357	374.22406
442.569	372.11307
442.78	414.33604
442.991	393.22373
443.203	509.36083
443.414	422.78141
443.626	357.33661
443.837	397.44606
444.048	433.33849
444.26	389.00146
444.471	408.00217
444.682	456.56545
444.894	376.33506
445.105	422.78141
445.316	576.95198
445.528	372.11307
445.739	496.6891
445.95	585.40185
446.161	490.35343
446.373	465.01208
446.584	568.50232
446.795	513.58486
447.006	469.23549
447.217	534.70585
447.429	587.51435
447.64	534.70585
447.851	676.25072
448.062	566.38994
448.273	617.09072
448.484	598.07705
448.695	526.25728
448.907	595.96448
449.118	574.83955
449.329	602.30222
449.54	710.06055
449.751	650.89528
449.962	545.26687
450.173	541.04242
450.384	712.17376
450.595	674.1377
450.806	729.07982
451.017	729.07982
451.228	661.45984
451.439	741.75982
451.65	712.17376
451.861	701.60782
452.072	828.41614
452.283	794.5971
452.494	779.80203
452.705	710.06055
452.915	845.32654
453.126	794.5971
453.337	769.23442
453.548	811.50632
453.759	915.08767
453.97	881.26297
454.181	976.39985
454.391	790.36989
454.602	951.02856
454.813	1075.77955
455.024	1090.58185
455.235	912.97357
455.445	1001.77211
455.656	932.00077
455.867	1084.23797
456.078	989.08586
456.288	870.69318
456.499	997.54333
456.71	938.3433
456.921	1022.91636
457.131	1137.10491
457.342	1001.77211
457.553	1048.29025
457.763	1181.51525
457.974	1302.06503
458.184	1251.30612
458.395	1287.26021
458.606	1194.20423
458.816	1363.40023
459.027	1496.64814
459.237	1365.51526
459.448	1456.46219
459.659	1323.21494
459.869	1445.88693
460.08	1625.66389
460.29	1617.20403
460.501	1632.00877
460.711	1722.94941
460.922	1566.4442
461.132	1564.32919
461.343	1729.2939
461.553	1676.42229
461.764	1813.88384
461.974	1733.52354
462.184	1699.68604
462.395	1851.94711
462.605	1942.8694
462.816	1782.16336
463.026	1944.98375
463.236	2076.06109
463.447	2143.70332
463.657	1964.01264
463.867	2124.67973
464.078	2293.75443
464.288	2200.77014
464.498	2122.56596
464.709	2181.74854
464.919	2350.80405
465.129	2426.85886
465.339	2316.99772
465.55	2507.12396
465.76	2437.42096
465.97	2416.2965
466.18	2570.47961
466.391	2667.60399
466.601	2612.71079
466.811	2697.15834
467.021	2629.60191
467.231	2958.80966
467.441	2815.34992
467.651	2958.80966
467.862	2944.04484
468.072	3205.48124
468.282	3167.54594
468.492	3068.46799
468.702	3264.48105
468.912	3342.42473
469.122	3154.89967
469.332	3439.29454
469.542	3481.40012
469.752	3542.44031
469.962	3525.60317
470.172	3725.4669
470.382	3618.19276
470.592	3826.38492
470.802	3811.67052
471.012	3834.79272
471.222	4099.47313
471.432	4095.2744
471.642	4028.08338
471.852	4246.37586
472.062	4212.80723
472.272	4460.24634
472.482	4627.82833
472.691	4590.13478
472.901	4514.72604
473.111	4556.62334
473.321	4738.77269
473.531	4887.29662
473.741	4887.29662
473.95	4989.73183
474.16	4924.93229
474.37	5296.70412
474.58	5317.56829
474.79	5442.70407
474.999	5359.2896
475.209	5186.08499
475.419	5369.71847
475.628	5844.64932
475.838	5705.21349
476.048	5667.73506
476.258	5913.28774
476.467	6114.89445
476.677	6004.76567
476.886	6403.40959
477.096	6420.00103
477.306	6502.93594
477.515	6274.77526
477.725	6289.30299
477.935	6353.6263
478.144	6672.83666
478.354	6459.39975
478.563	6923.26196
478.773	7086.58368
478.982	7274.54098
479.192	7125.84271
479.401	7113.446
479.611	7123.77665
479.82	7480.87744
480.03	7437.56483
480.239	7656.09357
480.449	7839.39109
480.658	7950.52491
480.868	8174.66942
481.077	8143.83804
481.287	7783.80151
481.496	8026.63762
481.705	8355.45719
481.915	8248.64648
482.124	8252.75556
482.333	8464.2679
482.543	8454.00505
482.752	8872.34904
482.961	8956.33625
483.171	9005.48567
483.38	8935.85432
483.589	9433.07782
483.799	9068.95541
484.008	9369.70118
484.217	9126.26859
484.426	9582.25842
484.636	9435.12197
484.845	9588.38732
485.054	9684.3884
485.263	10027.26791
485.472	9837.51145
485.682	10066.01998
485.891	10025.22819
486.1	9780.35547
486.309	10121.07994
486.518	10418.63831
486.727	10320.84251
486.936	10732.20121
487.146	10443.08255
487.355	10833.94507
487.564	10854.29033
487.773	11092.24548
487.982	10783.07683
488.191	11214.21571
488.4	11256.89636
488.609	11014.97764
488.818	11303.63664
489.027	11693.61481
489.236	11661.12978
489.445	11521.01135
489.654	11273.15446
489.863	11685.49377
490.072	11646.91685
490.281	11604.27541
490.49	11886.44872
490.698	12136.00749
490.907	12227.28041
491.116	12426.00246
491.325	12359.09328
491.534	12383.42475
491.743	12123.83663
491.952	12685.46225
492.16	12638.84806
492.369	12973.18759
492.578	12940.77328
492.787	12831.36502
492.996	12967.11001
493.204	12997.49747
493.413	12952.9288
493.622	13145.36728
493.831	12944.82514
494.039	13086.62755
494.248	13331.68884
494.457	13287.13703
494.665	13572.64039
494.874	13570.6158
495.083	13939.0371
495.291	13979.51715
495.5	13700.18227
495.709	13882.36327
495.917	14013.92439
496.126	13930.94097
496.335	13870.2186
496.543	14189.99804
496.752	14303.3245
496.96	14351.89124
497.169	14252.73306
497.377	14612.92263
497.586	14497.58598
497.794	14782.88618
498.003	14432.83372
498.211	14829.42279
498.42	14691.83508
498.628	15031.75257
498.837	14669.57788
499.045	15011.51977
499.254	14817.28284
499.462	15242.17291
499.671	15207.77728
499.879	15416.17534
500.087	15476.87454
500.296	15549.71425
500.504	15355.47655
500.713	15225.98673
500.921	15553.76092
501.129	15663.0223
501.338	15531.50424
501.546	15994.87091
501.754	15687.30293
501.962	16000.94162
502.171	15976.65886
502.379	16249.85254
502.587	16073.79115
502.795	16148.66632
503.004	16049.50776
503.212	16399.61635
503.42	16298.42348
503.628	16399.61635
503.837	16618.2102
504.045	16357.11477
504.253	16727.51675
504.461	16703.22582
504.669	16480.57418
504.877	17019.0358
505.085	16703.22582
505.294	16976.51927
505.502	16806.46466
505.71	17106.09721
505.918	17004.86349
506.126	17079.77578
506.334	17079.77578
506.542	17201.26328
506.75	16719.41973
506.958	17146.59264
507.166	17288.3357
507.374	17371.36336
507.582	17569.84076
507.79	17521.23125
507.998	17476.67414
508.206	17845.33048
508.414	17452.3709
508.622	17770.37492
508.83	17630.60527
509.037	17849.38226
509.245	17642.75853
509.453	17800.76175
509.661	18412.71946
509.869	18187.75606
510.077	18084.40977
510.285	18323.53927
510.492	18141.14774
510.7	18133.04214
510.908	17920.29074
511.116	18485.69054
511.324	18165.46488
511.531	18345.83363
511.739	18481.63646
511.947	18599.211
512.155	18404.61187
512.362	18597.18374
512.57	18522.17794
512.778	18692.46907
512.985	18692.46907
513.193	18733.01864
513.401	19122.37573
513.608	18797.90124
513.816	18797.90124
514.024	18686.38677
514.231	19049.35996
514.439	18978.37744
514.646	19136.57385
514.854	19264.366
515.061	18992.57355
515.269	19197.42523
515.477	19000.6857
515.684	19315.08169
515.892	19367.82874
516.099	19325.22514
516.307	19244.08045
516.514	19828.47055
516.722	19783.81742
516.929	19641.75278
517.136	19377.97273
517.344	19753.37327
517.551	19763.52121
517.759	20128.9172
517.966	19990.86271
518.173	19605.22519
518.381	20059.88752
518.588	20269.02179
518.796	20226.37915
519.003	20037.55543
519.21	20315.72777
519.418	20338.0662
519.625	19976.65232
519.832	20470.07635
520.039	20468.04529
520.247	20616.32363
520.454	20539.13486
520.661	20927.17071
520.868	20693.51841
521.076	20957.65113
521.283	20856.05335
521.49	20862.14893
521.697	21022.6791
521.904	21203.56017
522.112	20699.61299
522.319	21095.84059
522.526	20587.88496
522.733	21319.42223
522.94	21055.19466
523.147	21268.60392
523.354	21329.58619
523.561	21669.11986
523.768	21477.99148
523.975	21640.65172
524.183	21514.58782
524.39	21728.092
524.597	21980.28548
524.804	21858.24899
525.011	21748.42799
525.218	21878.58745
525.425	21602.01763
525.632	21945.70708
525.838	21593.88431
526.045	21660.98603
526.252	21929.43527
526.459	22096.23283
526.666	21959.94511
526.873	22474.67136
527.08	22234.57192
527.287	22600.84545
527.494	22438.04275
527.701	22741.28098
527.907	22543.86191
528.114	22706.67937
528.321	22244.74459
528.528	22623.2326
528.735	22696.50262
528.941	22810.48719
529.148	22727.03313
529.355	22859.34103
529.562	22678.18469
529.768	23081.24342
529.975	22472.63641
530.182	23337.80328
530.388	23018.12951
530.595	23293.00343
530.802	22814.55826
531.008	23470.17543
531.215	24018.12864
531.422	23675.88729
531.628	23722.73688
531.835	23675.88729
532.042	23818.47787
532.248	23908.11358
532.455	23572.00909
532.661	23938.67249
532.868	23820.51498
533.074	24050.72727
533.281	23891.81577
533.487	24295.23954
533.694	23857.18351
533.9	24362.48722
534.107	24134.26453
534.313	24331.91973
534.52	24276.89977
534.726	24437.88952
534.933	24252.44707
535.139	24362.48722
535.345	24533.67593
535.552	24672.2704
535.758	25018.8056
535.965	25090.15942
536.171	24662.07924
536.377	24910.76085
536.584	24943.37745
536.79	24882.22181
536.996	25192.0982
537.203	24959.68597
537.409	24806.79945
537.615	25120.74047
537.821	24961.72455
538.028	25328.7047
538.234	25159.47719
538.44	25149.28324
538.646	25206.37006
538.853	25432.69515
539.059	25428.61699
539.265	25634.57417
539.471	25899.69693
539.677	25932.32962
539.883	26224.00454
540.09	26119.9765
540.296	26177.08938
540.502	26230.12397
540.708	26091.42057
540.914	26068.98401
541.12	26028.19082
541.326	26450.43357
541.532	26446.35359
541.738	26417.79391
541.944	26281.11985
542.15	26562.63551
542.356	26432.07371
542.562	26474.91359
542.768	26379.03485
542.974	26434.11369
543.18	26407.5941
543.386	26778.89241
543.592	26854.38224
543.798	26862.54343
544.004	26770.73146
544.21	27119.63226
544.415	26723.8065
544.621	26997.20624
544.827	27025.77187
545.033	27166.56354
545.239	27333.88945
545.445	27544.07938
545.651	26956.39868
545.856	27333.88945
546.062	27403.27105
546.268	27295.11803
546.474	26942.11616
546.679	27170.64455
546.885	26878.86586
547.091	27180.84711
547.297	27174.72557
547.502	27699.17939
547.708	27325.72701
547.914	27909.3917
548.119	28358.42919
548.325	27411.43369
548.531	27280.83394
548.736	27609.3838
548.942	27335.93007
549.147	27421.63702
549.353	27868.57281
549.559	28003.27689
549.764	27919.5965
549.97	27776.732
550.175	28242.08253
550.381	28709.53137
550.586	28019.60499
550.792	28736.06943
550.997	28709.53137
551.203	28470.69682
551.408	28591.13295
551.614	28462.53179
551.819	28787.10466
552.025	28525.8112
552.23	28754.44204
552.435	28944.29724
552.641	28836.09909
552.846	28960.62929
553.052	28815.68467
553.257	29189.28496
553.462	29385.28593
553.668	29524.1258
553.873	29121.91185
554.078	29148.45264
554.283	29238.2843
554.489	29471.03939
554.694	29479.20649
554.899	29123.95344
555.105	29375.07731
555.31	29464.91408
555.515	29544.54385
555.72	29948.84336
555.925	29842.65952
556.131	29844.70149
556.336	29797.7365
556.541	29716.05963
556.746	29752.814
556.951	29856.95333
557.156	29622.13338
557.361	29781.40098
557.567	30034.60944
557.772	30052.98815
557.977	29750.77208
558.182	29775.27518
558.387	30128.54604
558.592	30310.29995
558.797	30461.42846
559.002	30183.68388
559.207	30204.10552
559.412	30426.70915
559.617	29738.52059
559.822	29993.7682
560.027	30240.86476
560.232	30373.60973
560.437	30128.54604
560.642	30461.42846
560.847	30622.7759
561.051	30434.87837
561.256	30428.75145
561.461	30720.81373
561.666	30782.08893
561.871	30547.20712
562.076	30959.79398
562.281	30892.38738
562.485	30251.07574
562.69	30786.17399
562.895	30312.34219
563.1	30771.87632
563.305	30673.83689
563.509	31023.11674
563.714	31039.45832
563.919	31080.31269
564.123	31249.86468
564.328	30914.85607
564.533	30902.6004
564.737	30865.83368
564.942	31133.42425
565.147	31527.7081
565.351	31307.06532
565.556	30843.36535
565.761	31468.45955
565.965	31680.94372
566.17	31294.80793
566.374	31685.03013
566.579	32022.18472
566.784	31392.86859
566.988	31603.30312
567.193	31717.72172
567.397	31593.08744
567.602	31497.06212
567.806	31049.67186
568.011	31736.11094
568.215	32085.53471
568.42	31768.80325
568.624	31932.27184
568.828	31975.18434
569.033	32005.83665
569.237	32293.99041
