Data from mixed_try1_USB4F045381__32__00097.txt Node

Date: Thu Apr 03 19:55:02 EDT 2025
User: mmckonesweet
Spectrometer: USB4F04538
Trigger mode: 4
Integration Time (sec): 2.700000E-3
Scans to average: 1
Electric dark correction enabled: true
Nonlinearity correction enabled: true
Boxcar width: 0
XAxis mode: Wavelengths
Number of Pixels in Spectrum: 3648
>>>>>Begin Spectral Data<<<<<
345.52	48.47593
345.736	48.47593
345.952	48.47593
346.168	-42.14263
346.384	-33.71489
346.6	-14.75104
346.816	0
347.032	25.29023
347.248	18.96735
347.464	8.4297
347.68	-31.6079
347.896	40.04444
348.112	-6.32202
348.328	21.07496
348.544	27.39791
348.76	-33.71489
348.975	-54.78349
349.191	0
349.407	-31.6079
349.623	10.53718
349.839	-52.67674
350.055	16.85977
350.27	-52.67674
350.486	31.61332
350.702	-65.31684
350.918	84.31387
351.133	33.72107
351.349	12.64469
351.565	-8.42931
351.781	42.15228
351.996	0
352.212	-14.75104
352.428	-6.32202
352.644	8.4297
352.859	-33.71489
353.075	-23.17966
353.291	14.75222
353.506	35.82884
353.722	-25.28676
353.938	-4.2147
354.153	0
354.369	-40.03573
354.584	50.58386
354.8	16.85977
355.016	27.39791
355.231	67.44814
355.447	-65.31684
355.662	-4.2147
355.878	-12.64382
356.093	54.79979
356.309	23.18258
356.524	-40.03573
356.74	12.64469
356.955	21.07496
357.171	90.63889
357.386	16.85977
357.602	-12.64382
357.817	61.12386
358.033	44.26014
358.248	8.4297
358.464	69.55627
358.679	56.90779
358.895	-6.32202
359.11	52.69182
359.325	-16.85823
359.541	-16.85823
359.756	-8.42931
359.972	-75.84956
360.187	46.36803
360.402	4.2148
360.618	71.66443
360.833	-21.07254
361.048	-56.89021
361.264	42.15228
361.479	-63.21022
361.694	44.26014
361.909	63.23193
362.125	-4.2147
362.34	-8.42931
362.555	-6.32202
362.77	-12.64382
362.986	-50.56997
363.201	-12.64382
363.416	16.85977
363.631	16.85977
363.847	44.26014
364.062	0
364.277	2.10739
364.492	-10.53658
364.707	25.29023
364.922	10.53718
365.138	44.26014
365.353	59.01582
365.568	52.69182
365.783	-48.46317
365.998	12.64469
366.213	50.58386
366.428	84.31387
366.643	35.82884
366.858	-25.28676
367.073	-56.89021
367.288	-6.32202
367.503	8.4297
367.718	-42.14263
367.933	14.75222
368.148	12.64469
368.363	27.39791
368.578	-75.84956
368.793	-42.14263
369.008	-4.2147
369.223	-23.17966
369.438	12.64469
369.653	-29.50088
369.868	42.15228
370.083	50.58386
370.298	-35.82187
370.513	-4.2147
370.728	8.4297
370.943	-67.42343
371.157	12.64469
371.372	-16.85823
371.587	-16.85823
371.802	0
372.017	0
372.232	18.96735
372.446	37.93663
372.661	37.93663
372.876	59.01582
373.091	10.53718
373.306	0
373.52	52.69182
373.735	25.29023
373.95	10.53718
374.165	50.58386
374.379	-10.53658
374.594	-8.42931
374.809	-33.71489
375.023	-75.84956
375.238	25.29023
375.453	96.96411
375.667	25.29023
375.882	-33.71489
376.097	-27.39383
376.311	-4.2147
376.526	23.18258
376.741	12.64469
376.955	-16.85823
377.17	0
377.384	2.10739
377.599	-8.42931
377.813	65.34002
378.028	12.64469
378.242	-23.17966
378.457	52.69182
378.672	-84.27527
378.886	84.31387
379.101	40.04444
379.315	-27.39383
379.53	12.64469
379.744	-31.6079
379.958	67.44814
380.173	27.39791
380.387	33.72107
380.602	50.58386
380.816	46.36803
381.031	-23.17966
381.245	25.29023
381.459	0
381.674	25.29023
381.888	-6.32202
382.103	21.07496
382.317	-25.28676
382.531	42.15228
382.746	29.5056
382.96	-46.35635
383.174	29.5056
383.388	-8.42931
383.603	-10.53658
383.817	25.29023
384.031	-40.03573
384.246	0
384.46	-16.85823
384.674	16.85977
384.888	-48.46317
385.103	-84.27527
385.317	-71.63655
385.531	37.93663
385.745	27.39791
385.959	0
386.174	8.4297
386.388	99.07256
386.602	21.07496
386.816	-37.92881
387.03	63.23193
387.244	31.61332
387.458	-42.14263
387.672	35.82884
387.887	69.55627
388.101	-16.85823
388.315	-58.9969
388.529	18.96735
388.743	33.72107
388.957	23.18258
389.171	-6.32202
389.385	-16.85823
389.599	29.5056
389.813	37.93663
390.027	21.07496
390.241	37.93663
390.455	29.5056
390.669	10.53718
390.883	-37.92881
391.097	56.90779
391.311	33.72107
391.525	40.04444
391.738	27.39791
391.952	59.01582
392.166	8.4297
392.38	46.36803
392.594	-4.2147
392.808	-14.75104
393.022	-46.35635
393.236	16.85977
393.449	29.5056
393.663	-101.12544
393.877	-16.85823
394.091	40.04444
394.305	-33.71489
394.518	21.07496
394.732	33.72107
394.946	8.4297
395.16	-33.71489
395.373	46.36803
395.587	-90.59428
395.801	63.23193
396.015	-6.32202
396.228	50.58386
396.442	50.58386
396.656	16.85977
396.869	18.96735
397.083	-10.53658
397.297	-31.6079
397.51	-16.85823
397.724	6.32224
397.938	-31.6079
398.151	54.79979
398.365	84.31387
398.578	-10.53658
398.792	-56.89021
399.005	-42.14263
399.219	0
399.433	59.01582
399.646	-6.32202
399.86	18.96735
400.073	16.85977
400.287	-8.42931
400.5	42.15228
400.714	25.29023
400.927	71.66443
401.141	-40.03573
401.354	31.61332
401.567	35.82884
401.781	12.64469
401.994	80.0973
402.208	42.15228
402.421	4.2148
402.635	-33.71489
402.848	16.85977
403.061	-21.07254
403.275	-37.92881
403.488	-10.53658
403.701	31.61332
403.915	12.64469
404.128	52.69182
404.341	-29.50088
404.555	46.36803
404.768	-21.07254
404.981	35.82884
405.195	2.10739
405.408	-65.31684
405.621	-4.2147
405.834	10.53718
406.048	-18.9654
406.261	0
406.474	61.12386
406.687	59.01582
406.9	0
407.114	16.85977
407.327	92.74727
407.54	-33.71489
407.753	12.64469
407.966	2.10739
408.179	105.39804
408.392	-40.03573
408.605	8.4297
408.819	8.4297
409.032	-10.53658
409.245	33.72107
409.458	27.39791
409.671	-16.85823
409.884	59.01582
410.097	-16.85823
410.31	80.0973
410.523	-6.32202
410.736	0
410.949	61.12386
411.162	42.15228
411.375	-25.28676
411.588	-18.9654
411.801	-54.78349
412.014	-4.2147
412.227	-25.28676
412.44	18.96735
412.653	0
412.865	42.15228
413.078	-4.2147
413.291	21.07496
413.504	25.29023
413.717	-25.28676
413.93	29.5056
414.143	-8.42931
414.356	-50.56997
414.568	10.53718
414.781	42.15228
414.994	-37.92881
415.207	92.74727
415.42	-6.32202
415.632	-50.56997
415.845	-42.14263
416.058	33.72107
416.271	44.26014
416.483	8.4297
416.696	12.64469
416.909	50.58386
417.121	25.29023
417.334	25.29023
417.547	-4.2147
417.759	37.93663
417.972	75.88082
418.185	-35.82187
418.397	40.04444
418.61	18.96735
418.823	4.2148
419.035	14.75222
419.248	29.5056
419.46	-40.03573
419.673	63.23193
419.885	-4.2147
420.098	86.42218
420.311	16.85977
420.523	-25.28676
420.736	-25.28676
420.948	-23.17966
421.161	16.85977
421.373	25.29023
421.586	8.4297
421.798	61.12386
422.01	54.79979
422.223	40.04444
422.435	-33.71489
422.648	-37.92881
422.86	33.72107
423.073	48.47593
423.285	92.74727
423.497	33.72107
423.71	37.93663
423.922	84.31387
424.134	16.85977
424.347	14.75222
424.559	0
424.771	16.85977
424.984	35.82884
425.196	33.72107
425.408	-27.39383
425.621	59.01582
425.833	-8.42931
426.045	77.98905
426.257	2.10739
426.47	42.15228
426.682	18.96735
426.894	33.72107
427.106	-46.35635
427.318	-42.14263
427.531	42.15228
427.743	59.01582
427.955	-6.32202
428.167	75.88082
428.379	67.44814
428.591	50.58386
428.804	44.26014
429.016	8.4297
429.228	16.85977
429.44	-16.85823
429.652	101.18103
429.864	10.53718
430.076	-37.92881
430.288	-50.56997
430.5	21.07496
430.712	63.23193
430.924	69.55627
431.136	33.72107
431.348	-96.91306
431.56	2.10739
431.772	16.85977
431.984	-6.32202
432.196	35.82884
432.408	12.64469
432.62	6.32224
432.832	0
433.044	-16.85823
433.256	21.07496
433.468	27.39791
433.679	18.96735
433.891	2.10739
434.103	54.79979
434.315	-6.32202
434.527	-42.14263
434.739	-8.42931
434.95	59.01582
435.162	18.96735
435.374	54.79979
435.586	52.69182
435.798	8.4297
436.009	-25.28676
436.221	16.85977
436.433	33.72107
436.645	10.53718
436.856	-33.71489
437.068	46.36803
437.28	6.32224
437.491	-23.17966
437.703	-44.2495
437.915	88.53052
438.126	46.36803
438.338	-33.71489
438.55	52.69182
438.761	42.15228
438.973	46.36803
439.184	8.4297
439.396	101.18103
439.608	-4.2147
439.819	-8.42931
440.031	59.01582
440.242	-21.07254
440.454	44.26014
440.665	50.58386
440.877	63.23193
441.088	-21.07254
441.3	-16.85823
441.511	8.4297
441.723	8.4297
441.934	-4.2147
442.146	8.4297
442.357	0
442.569	2.10739
442.78	46.36803
442.991	8.4297
443.203	18.96735
443.414	4.2148
443.626	16.85977
443.837	-23.17966
444.048	-8.42931
444.26	-58.9969
444.471	-31.6079
444.682	6.32224
444.894	4.2148
445.105	-23.17966
445.316	25.29023
445.528	25.29023
445.739	25.29023
445.95	46.36803
446.161	23.18258
446.373	-16.85823
446.584	-12.64382
446.795	59.01582
447.006	-8.42931
447.217	86.42218
447.429	18.96735
447.64	52.69182
447.851	-31.6079
448.062	21.07496
448.273	46.36803
448.484	-16.85823
448.695	35.82884
448.907	77.98905
449.118	-16.85823
449.329	33.72107
449.54	8.4297
449.751	44.26014
449.962	2.10739
450.173	69.55627
450.384	16.85977
450.595	33.72107
450.806	63.23193
451.017	0
451.228	-12.64382
451.439	77.98905
451.65	35.82884
451.861	101.18103
452.072	-8.42931
452.283	50.58386
452.494	6.32224
452.705	18.96735
452.915	33.72107
453.126	-2.10736
453.337	29.5056
453.548	84.31387
453.759	33.72107
453.97	2.10739
454.181	-25.28676
454.391	31.61332
454.602	77.98905
454.813	14.75222
455.024	59.01582
455.235	0
455.445	21.07496
455.656	-16.85823
455.867	69.55627
456.078	16.85977
456.288	4.2148
456.499	-18.9654
456.71	10.53718
456.921	118.04961
457.131	44.26014
457.342	0
457.553	44.26014
457.763	59.01582
457.974	21.07496
458.184	61.12386
458.395	18.96735
458.606	-12.64382
458.816	59.01582
459.027	92.74727
459.237	42.15228
459.448	10.53718
459.659	-31.6079
459.869	33.72107
460.08	52.69182
460.29	-23.17966
460.501	-4.2147
460.711	25.29023
460.922	46.36803
461.132	-23.17966
461.343	-21.07254
461.553	61.12386
461.764	33.72107
461.974	8.4297
462.184	-12.64382
462.395	84.31387
462.605	71.66443
462.816	67.44814
463.026	16.85977
463.236	99.07256
463.447	-25.28676
463.657	35.82884
463.867	50.58386
464.078	71.66443
464.288	35.82884
464.498	35.82884
464.709	42.15228
464.919	67.44814
465.129	12.64469
465.339	-37.92881
465.55	46.36803
465.76	12.64469
465.97	71.66443
466.18	37.93663
466.391	35.82884
466.601	67.44814
466.811	48.47593
467.021	54.79979
467.231	71.66443
467.441	-40.03573
467.651	-56.89021
467.862	44.26014
468.072	4.2148
468.282	63.23193
468.492	63.23193
468.702	99.07256
468.912	4.2148
469.122	50.58386
469.332	42.15228
469.542	27.39791
469.752	94.85568
469.962	-18.9654
470.172	18.96735
470.382	77.98905
470.592	86.42218
470.802	77.98905
471.012	29.5056
471.222	75.88082
471.432	4.2148
471.642	-23.17966
471.852	18.96735
472.062	35.82884
472.272	84.31387
472.482	71.66443
472.691	63.23193
472.901	46.36803
473.111	59.01582
473.321	181.31899
473.531	77.98905
473.741	37.93663
473.95	-31.6079
474.16	52.69182
474.37	63.23193
474.58	54.79979
474.79	54.79979
474.999	59.01582
475.209	18.96735
475.419	103.28953
475.628	160.22709
475.838	50.58386
476.048	96.96411
476.258	126.48442
476.467	92.74727
476.677	69.55627
476.886	37.93663
477.096	69.55627
477.306	90.63889
477.515	75.88082
477.725	115.94096
477.935	52.69182
478.144	88.53052
478.354	88.53052
478.563	101.18103
478.773	88.53052
478.982	118.04961
479.192	90.63889
479.401	145.464
479.611	160.22709
479.82	109.61514
480.03	134.91958
480.239	120.15828
480.449	82.20557
480.658	109.61514
480.868	77.98905
481.077	143.35507
481.287	189.75633
481.496	120.15828
481.705	84.31387
481.915	170.77278
482.124	134.91958
482.333	111.72373
482.543	52.69182
482.752	193.97512
482.961	160.22709
483.171	183.42829
483.38	202.41294
483.589	105.39804
483.799	198.19399
484.008	134.91958
484.217	172.88198
484.426	177.10045
484.636	177.10045
484.845	200.30345
485.054	160.22709
485.263	153.89993
485.472	177.10045
485.682	122.26697
485.891	153.89993
486.1	253.04654
486.309	202.41294
486.518	265.70668
486.727	250.93658
486.936	185.53762
487.146	236.16742
487.355	253.04654
487.564	210.85109
487.773	282.58793
487.982	160.22709
488.191	280.47771
488.4	193.97512
488.609	265.70668
488.818	305.80158
489.027	265.70668
489.236	253.04654
489.445	286.80843
489.654	295.24965
489.863	367.01157
490.072	272.03701
490.281	282.58793
490.49	316.35397
490.698	307.91202
490.907	356.45708
491.116	348.0138
491.325	217.1799
491.534	341.68151
491.743	367.01157
491.952	398.67758
492.16	362.78973
492.369	386.01073
492.578	386.01073
492.787	424.01305
492.996	303.69116
493.204	390.23295
493.413	455.68561
493.622	464.13222
493.831	392.34408
494.039	493.69724
494.248	466.24391
494.457	440.90465
494.665	455.68561
494.874	514.81688
495.083	466.24391
495.291	472.57906
495.5	451.4624
495.709	478.91436
495.917	447.23925
496.126	544.38677
496.335	569.73455
496.543	616.21043
496.752	531.71362
496.96	565.50978
497.169	559.17274
497.377	554.94811
497.586	413.45632
497.794	620.43582
498.003	506.36885
498.211	595.08425
498.42	637.33786
498.628	702.8405
498.837	658.46652
499.045	578.18424
499.254	569.73455
499.462	584.52165
499.671	620.43582
499.879	654.24069
500.087	711.29325
500.296	666.91831
500.504	654.24069
500.713	757.78646
500.921	662.69239
501.129	709.18005
501.338	709.18005
501.546	768.3538
501.754	643.67633
501.962	835.99052
502.171	745.10599
502.379	755.67302
502.587	804.2846
502.795	863.47061
503.004	685.93553
503.212	793.71643
503.42	802.17095
503.628	800.0573
503.837	804.2846
504.045	871.92631
504.253	821.19417
504.461	797.94367
504.669	850.78731
504.877	929.0057
505.085	863.47061
505.294	903.63637
505.502	895.18018
505.71	948.03341
505.918	861.3567
506.126	1003.00551
506.334	967.06169
506.542	948.03341
506.75	1005.11991
506.958	988.20488
507.166	998.77672
507.374	1131.99431
507.582	890.95213
507.79	886.72411
507.998	975.51889
508.206	1199.66758
508.414	1034.72216
508.622	1222.93113
508.83	1123.53545
509.037	1047.4092
509.245	1032.60768
509.453	1265.22943
509.661	1038.95115
509.869	1174.28964
510.077	1191.20821
510.285	1157.37131
510.492	998.77672
510.7	1271.57427
510.908	1142.56799
511.116	1165.83045
511.324	1131.99431
511.531	1182.7489
511.739	1022.03534
511.947	1292.72388
512.155	1260.99955
512.362	1341.36876
512.57	1191.20821
512.778	1280.03409
512.985	1250.4249
513.193	1394.24449
513.401	1235.6205
513.608	1303.29877
513.816	1178.51926
514.024	1322.33369
514.231	1216.58649
514.439	1394.24449
514.646	1244.08014
514.854	1394.24449
515.061	1275.80418
515.269	1349.82882
515.477	1402.70467
515.684	1385.78433
515.892	1478.84648
516.099	1354.05887
516.307	1364.63399
516.514	1535.95263
516.722	1402.70467
516.929	1626.89762
517.136	1468.27123
517.344	1567.67796
517.551	1267.34438
517.759	1434.43039
517.966	1480.96153
518.173	1552.87284
518.381	1593.05799
518.588	1703.03457
518.796	1576.13799
519.003	1599.40296
519.21	1502.11201
519.418	1648.04711
519.625	1525.37746
519.832	1648.04711
520.039	1510.57218
520.247	1734.75718
520.454	1641.70229
520.661	1758.01993
520.868	1616.32279
521.076	1859.52433
521.283	1774.938
521.49	1698.80484
521.697	1738.9868
521.904	1918.73016
522.112	1669.19636
522.319	1969.47454
522.526	1774.938
522.733	1927.18779
522.94	1755.90515
523.147	1846.83685
523.354	1834.14919
523.561	1884.89876
523.768	1889.12776
523.975	1971.58881
524.183	1755.90515
524.39	1770.70851
524.597	1901.81463
524.804	1935.64533
525.011	1853.18061
525.218	2149.16367
525.425	1785.51167
525.632	2109.00242
525.838	1977.9316
526.045	2134.36775
526.252	1912.38688
526.459	2011.75884
526.666	1980.04585
526.873	2231.59071
527.08	1973.70308
527.287	2089.9777
527.494	2043.47034
527.701	2041.35629
527.907	2066.72445
528.114	2231.59071
528.321	2301.32623
528.528	2153.39101
528.735	2252.72373
528.941	2316.11731
529.148	2070.95238
529.355	2316.11731
529.562	2113.23005
529.768	2223.13725
529.975	2138.5952
530.182	2387.95286
530.388	2191.43555
530.595	2341.47234
530.802	2206.22992
531.008	2493.57154
531.215	2398.51592
531.422	2428.09112
531.628	2368.93869
531.835	2571.71142
532.042	2425.97867
532.248	2664.61324
532.455	2362.60046
532.661	2637.16746
532.868	2356.26213
533.074	2525.25178
533.281	2231.59071
533.487	2700.50063
533.694	2387.95286
533.9	2647.72378
534.107	2599.16215
534.313	2586.49283
534.52	2696.27878
534.726	2757.49054
534.933	2597.05063
535.139	2687.83492
535.345	2666.72436
535.552	2645.61254
535.758	2730.05215
535.965	2890.42844
536.171	2837.68193
536.377	2871.44072
536.584	2706.83332
536.79	3016.98293
536.996	2751.1588
537.203	2706.83332
537.409	2713.16588
537.615	2763.82215
537.821	2774.37457
538.028	2898.86706
538.234	2755.37997
538.44	2926.29095
538.646	2696.27878
538.853	2983.24032
539.059	2835.57188
539.265	2932.61919
539.471	2810.25026
539.677	2903.08628
539.883	2772.26412
540.09	3185.63612
540.296	2905.19587
540.502	3164.56007
540.708	3025.41797
540.914	3156.12919
541.12	2983.24032
541.326	3263.60317
541.532	3147.69805
541.738	3303.63137
541.944	3000.11211
542.15	3189.85114
542.356	2966.36756
542.562	3198.28097
542.768	3050.72162
542.974	3389.98685
543.18	3202.49579
543.386	3425.78415
543.592	3394.19856
543.798	3303.63137
544.004	3324.69636
544.21	3387.88097
544.415	3290.99155
544.621	3482.62809
544.827	3320.4835
545.033	3619.42003
545.239	3398.4102
545.445	3415.25606
545.651	3208.81789
545.856	3499.46821
546.062	3427.88971
546.268	3495.25829
546.474	3522.62147
546.679	3303.63137
546.885	3305.73794
547.091	3478.41788
547.297	3415.25606
547.502	3472.10242
547.708	3295.20489
547.914	3524.72621
548.119	3533.14495
548.325	3619.42003
548.531	3196.17354
548.736	3564.71263
548.942	3493.1533
549.147	3444.73358
549.353	3543.66797
549.559	3667.80445
549.764	3467.89203
549.97	3728.79651
550.175	3520.51672
550.381	3842.32443
550.586	3514.20236
550.792	3976.80104
550.997	3730.89939
551.203	3812.89676
551.408	3678.32147
551.614	3838.12071
551.819	3768.74802
552.025	3909.57303
552.23	3867.54505
552.435	4102.79707
552.641	3981.0021
552.846	3962.09668
553.052	3966.29803
553.257	3997.80552
553.462	4012.50744
553.668	4069.2054
553.873	4010.40723
554.078	4044.00817
554.283	3943.18963
554.489	4214.03118
554.694	3949.49216
554.899	4075.50425
555.105	3852.83337
555.31	4178.35876
555.515	3766.64549
555.72	4264.38178
555.925	4065.00607
556.131	4258.08863
556.336	4119.59091
556.541	4081.8029
556.746	4104.89638
556.951	4377.62543
557.156	4071.30504
557.361	4230.81608
557.567	4054.50738
557.772	4438.41537
557.977	4188.85128
558.182	4564.129
558.387	4258.08863
558.592	4211.93297
558.797	4111.19416
559.002	4377.62543
559.207	4102.79707
559.412	4308.42845
559.617	4337.78762
559.822	4467.75565
560.027	4310.52567
560.232	4486.61498
560.437	4371.33577
560.642	4346.17518
560.847	4224.5219
561.051	4624.86197
561.256	4190.94973
561.461	4532.70805
561.666	4350.36883
561.871	4321.01147
562.076	4356.65914
562.281	4578.7904
562.485	4346.17518
562.69	4446.79874
562.895	4350.36883
563.1	4513.85309
563.305	4344.07832
563.509	4564.129
563.714	4497.09162
563.919	4693.94902
564.123	4582.97917
564.328	4606.01582
564.533	4446.79874
564.737	4549.46651
564.942	4492.90103
565.147	4777.65799
565.351	4689.76262
565.556	4725.34412
565.761	4647.8937
565.965	4754.64163
566.17	4367.14256
566.374	4750.45654
566.579	4857.14788
566.784	4639.51884
566.988	4790.21121
567.193	4974.23073
567.397	4798.57957
567.602	4999.31053
567.806	4656.26821
568.011	4890.60746
568.215	4756.73414
568.42	4890.60746
568.624	4890.60746
568.828	5013.93888
569.033	4756.73414
569.237	4990.95096
569.442	4735.80802
569.646	4951.23799
569.85	4769.28872
570.055	5091.24136
570.259	4976.32084
570.463	4990.95096
570.668	4955.4187
570.872	4974.23073
571.076	4842.50748
571.281	5226.96605
571.485	4949.14761
571.689	5143.45479
571.893	4974.23073
572.098	5235.31513
572.302	5003.49017
572.506	5076.619
572.71	4957.50901
572.914	5358.4205
573.119	4836.23268
573.323	5070.35192
573.527	5020.20783
573.731	5279.14163
573.935	5084.97477
574.139	5176.86377
574.343	4842.50748
574.547	5277.05489
574.751	5041.10282
574.955	5443.92025
575.159	5095.41897
575.364	5220.704
575.568	5158.07195
575.772	5287.48837
575.976	5270.79452
576.18	5350.07695
576.383	5170.60004
576.587	5320.87157
576.791	5199.82898
576.995	5393.87641
577.199	5393.87641
577.403	5458.51382
577.607	5325.04405
577.811	5460.59852
578.015	5362.59214
578.219	5475.19077
578.422	5423.07029
578.626	5671.03208
578.83	5416.81485
579.034	5516.87657
579.238	5416.81485
579.442	5437.66551
579.645	5541.88353
579.849	5691.854
580.053	5525.2126
580.257	5589.80405
580.46	5291.6616
580.664	5708.50983
