Data from Scatter_Coeff_Baseline_USB4F045381__51__0051.txt Node

Date: Thu Feb 13 19:33:08 EST 2025
User: mmckonesweet
Spectrometer: USB4F04538
Trigger mode: 4
Integration Time (sec): 2.400000E-3
Scans to average: 1
Electric dark correction enabled: true
Nonlinearity correction enabled: true
Boxcar width: 0
XAxis mode: Wavelengths
Number of Pixels in Spectrum: 3648
>>>>>Begin Spectral Data<<<<<
345.52	-5.79519
345.736	-5.79519
345.952	-5.79519
346.168	-54.2568
346.384	-81.64228
346.6	74.29967
346.816	-41.61591
347.032	-31.08114
347.248	19.49425
347.464	-3.68787
347.68	44.78711
347.896	11.06405
348.112	-28.97412
348.328	-22.65289
348.544	-37.40208
348.76	34.24801
348.975	-18.43861
349.191	-16.33143
349.407	-1.58052
349.623	-1.58052
349.839	-18.43861
350.055	-26.86706
350.27	15.2791
350.486	-18.43861
350.702	11.06405
350.918	36.35578
351.133	-81.64228
351.349	51.11085
351.565	4.74166
351.781	-56.36353
351.996	44.78711
352.212	-20.54576
352.428	44.78711
352.644	-5.79519
352.859	-35.29512
353.075	-20.54576
353.291	57.4348
353.506	-37.40208
353.722	-45.82964
353.938	70.08331
354.153	-1.58052
354.369	-7.90249
354.584	-5.79519
354.8	-92.17399
355.016	36.35578
355.231	-5.79519
355.447	-5.79519
355.662	-31.08114
355.878	-60.57691
356.093	-43.72279
356.309	-5.79519
356.524	-47.93647
356.74	-71.10991
356.955	-5.79519
357.171	36.35578
357.386	-56.36353
357.602	-35.29512
357.817	23.70949
358.033	8.95656
358.248	-35.29512
358.464	-47.93647
358.679	-12.11701
358.895	-31.08114
359.11	2.63424
359.325	-45.82964
359.541	32.14026
359.756	-37.40208
359.972	-3.68787
360.187	27.92483
360.402	-52.15005
360.618	32.14026
360.833	-3.68787
361.048	6.8491
361.264	67.97517
361.479	6.8491
361.694	21.60186
361.909	-22.65289
362.125	42.67924
362.34	84.84094
362.555	-12.11701
362.77	27.92483
362.986	-56.36353
363.201	-43.72279
363.416	99.59967
363.631	-31.08114
363.847	15.2791
364.062	11.06405
364.277	-39.50901
364.492	53.21881
364.707	25.81715
364.922	-14.22423
365.138	-60.57691
365.353	-5.79519
365.568	-18.43861
365.783	-12.11701
365.998	-5.79519
366.213	-5.79519
366.428	-56.36353
366.643	21.60186
366.858	-20.54576
367.073	-37.40208
367.288	-18.43861
367.503	46.895
367.718	-24.75999
367.933	-1.58052
368.148	-56.36353
368.363	-5.79519
368.578	4.74166
368.793	2.63424
369.008	6.8491
369.223	-28.97412
369.438	-26.86706
369.653	-1.58052
369.868	-26.86706
370.083	-3.68787
370.298	-35.29512
370.513	-26.86706
370.728	-43.72279
370.943	65.86705
371.157	17.38667
371.372	-73.21644
371.587	76.40788
371.802	36.35578
372.017	8.95656
372.232	30.03253
372.446	25.81715
372.661	6.8491
372.876	-10.00976
373.091	40.5714
373.306	15.2791
373.52	55.32679
373.735	36.35578
373.95	36.35578
374.165	-31.08114
374.379	6.8491
374.594	11.06405
374.809	13.17157
375.023	-7.90249
375.238	40.5714
375.453	-5.79519
375.667	-54.2568
375.882	-37.40208
376.097	8.95656
376.311	-43.72279
376.526	-37.40208
376.741	17.38667
376.955	-12.11701
377.17	-45.82964
377.384	21.60186
377.599	11.06405
377.813	19.49425
378.028	38.46358
378.242	13.17157
378.457	-31.08114
378.672	-20.54576
378.886	-64.79019
379.101	11.06405
379.315	-26.86706
379.53	-3.68787
379.744	-47.93647
379.958	32.14026
380.173	74.29967
380.387	36.35578
380.602	13.17157
380.816	-43.72279
381.031	2.63424
381.245	-16.33143
381.459	32.14026
381.674	-56.36353
381.888	-60.57691
382.103	6.8491
382.317	-62.68356
382.531	-3.68787
382.746	19.49425
382.96	-18.43861
383.174	-69.00336
383.388	4.74166
383.603	11.06405
383.817	15.2791
384.031	-43.72279
384.246	19.49425
384.46	-24.75999
384.674	27.92483
384.888	27.92483
385.103	-39.50901
385.317	6.8491
385.531	21.60186
385.745	-35.29512
385.959	-47.93647
386.174	-20.54576
386.388	-18.43861
386.602	-39.50901
386.816	38.46358
387.03	0.52684
387.244	19.49425
387.458	-22.65289
387.672	-10.00976
387.887	-1.58052
388.101	-10.00976
388.315	-85.85504
388.529	13.17157
388.743	-58.47023
388.957	27.92483
389.171	8.95656
389.385	19.49425
389.599	-22.65289
389.813	38.46358
390.027	2.63424
390.241	-52.15005
390.455	-31.08114
390.669	-45.82964
390.883	-12.11701
391.097	6.8491
391.311	27.92483
391.525	46.895
391.738	23.70949
391.952	-3.68787
392.166	-18.43861
392.38	36.35578
392.594	36.35578
392.808	11.06405
393.022	-1.58052
393.236	6.8491
393.449	23.70949
393.663	27.92483
393.877	27.92483
394.091	46.895
394.305	4.74166
394.518	40.5714
394.732	-33.18815
394.946	-24.75999
395.16	15.2791
395.373	36.35578
395.587	21.60186
395.801	53.21881
396.015	-12.11701
396.228	-20.54576
396.442	-1.58052
396.656	2.63424
396.869	4.74166
397.083	8.95656
397.297	19.49425
397.51	65.86705
397.724	-37.40208
397.938	61.65088
398.151	15.2791
398.365	-5.79519
398.578	63.75895
398.792	61.65088
399.005	55.32679
399.219	36.35578
399.433	-20.54576
399.646	17.38667
399.86	44.78711
400.073	-60.57691
400.287	-64.79019
400.5	-47.93647
400.714	-75.32294
400.927	-1.58052
401.141	-33.18815
401.354	-14.22423
401.567	44.78711
401.781	19.49425
401.994	15.2791
402.208	6.8491
402.421	-26.86706
402.635	-20.54576
402.848	6.8491
403.061	21.60186
403.275	-26.86706
403.488	2.63424
403.701	42.67924
403.915	15.2791
404.128	6.8491
404.341	6.8491
404.555	46.895
404.768	27.92483
404.981	6.8491
405.195	-47.93647
405.408	-16.33143
405.621	55.32679
405.834	-22.65289
406.048	53.21881
406.261	6.8491
406.474	95.38278
406.687	-7.90249
406.9	-64.79019
407.114	61.65088
407.327	-14.22423
407.54	42.67924
407.753	-12.11701
407.966	30.03253
408.179	65.86705
408.392	-62.68356
408.605	15.2791
408.819	4.74166
409.032	-5.79519
409.245	65.86705
409.458	-10.00976
409.671	19.49425
409.884	-66.89679
410.097	-41.61591
410.31	-5.79519
410.523	44.78711
410.736	46.895
410.949	65.86705
411.162	-37.40208
411.375	-16.33143
411.588	11.06405
411.801	2.63424
412.014	42.67924
412.227	2.63424
412.44	21.60186
412.653	25.81715
412.865	15.2791
413.078	-5.79519
413.291	-14.22423
413.504	74.29967
413.717	63.75895
413.93	51.11085
414.143	25.81715
414.356	105.92518
414.568	63.75895
414.781	-14.22423
414.994	32.14026
415.207	-52.15005
415.42	4.74166
415.632	-26.86706
415.845	-31.08114
416.058	-26.86706
416.271	6.8491
416.483	-3.68787
416.696	91.16598
416.909	-18.43861
417.121	34.24801
417.334	-35.29512
417.547	-1.58052
417.759	-79.53586
417.972	-18.43861
418.185	61.65088
418.397	36.35578
418.61	55.32679
418.823	2.63424
419.035	21.60186
419.248	-60.57691
419.46	38.46358
419.673	-37.40208
419.885	-26.86706
420.098	19.49425
420.311	-31.08114
420.523	63.75895
420.736	38.46358
420.948	2.63424
421.161	-14.22423
421.373	11.06405
421.586	-20.54576
421.798	-16.33143
422.01	36.35578
422.223	-37.40208
422.435	2.63424
422.648	27.92483
422.86	61.65088
423.073	61.65088
423.285	19.49425
423.497	21.60186
423.71	46.895
423.922	32.14026
424.134	13.17157
424.347	-22.65289
424.559	42.67924
424.771	-28.97412
424.984	-10.00976
425.196	2.63424
425.408	38.46358
425.621	-5.79519
425.833	-12.11701
426.045	27.92483
426.257	27.92483
426.47	23.70949
426.682	15.2791
426.894	51.11085
427.106	32.14026
427.318	49.00291
427.531	13.17157
427.743	40.5714
427.955	36.35578
428.167	6.8491
428.379	63.75895
428.591	34.24801
428.804	4.74166
429.016	105.92518
429.228	120.68545
429.44	63.75895
429.652	-22.65289
429.864	-43.72279
430.076	72.19148
430.288	-20.54576
430.5	-45.82964
430.712	6.8491
430.924	23.70949
431.136	30.03253
431.348	13.17157
431.56	-1.58052
431.772	-14.22423
431.984	-60.57691
432.196	-73.21644
432.408	21.60186
432.62	46.895
432.832	-3.68787
433.044	78.51611
433.256	59.54283
433.468	44.78711
433.679	86.94927
433.891	53.21881
434.103	2.63424
434.315	8.95656
434.527	0.52684
434.739	-18.43861
434.95	0.52684
435.162	-3.68787
435.374	-64.79019
435.586	34.24801
435.798	11.06405
436.009	-31.08114
436.221	-14.22423
436.433	23.70949
436.645	120.68545
436.856	59.54283
437.068	76.40788
437.28	86.94927
437.491	-5.79519
437.703	36.35578
437.915	51.11085
438.126	-31.08114
438.338	17.38667
438.55	25.81715
438.761	120.68545
438.973	-10.00976
439.184	-20.54576
439.396	-24.75999
439.608	82.73264
439.819	23.70949
440.031	91.16598
440.242	74.29967
440.454	59.54283
440.665	19.49425
440.877	38.46358
441.088	49.00291
441.3	61.65088
441.511	95.38278
441.723	51.11085
441.934	27.92483
442.146	63.75895
442.357	38.46358
442.569	112.25088
442.78	139.6645
442.991	36.35578
443.203	57.4348
443.414	-39.50901
443.626	-7.90249
443.837	19.49425
444.048	-5.79519
444.26	23.70949
444.471	21.60186
444.682	19.49425
444.894	23.70949
445.105	25.81715
445.316	44.78711
445.528	21.60186
445.739	70.08331
445.95	112.25088
446.161	40.5714
446.373	46.895
446.584	-7.90249
446.795	46.895
447.006	-14.22423
447.217	65.86705
447.429	61.65088
447.64	6.8491
447.851	40.5714
448.062	38.46358
448.273	86.94927
448.484	95.38278
448.695	21.60186
448.907	36.35578
449.118	55.32679
449.329	15.2791
449.54	21.60186
449.751	40.5714
449.962	61.65088
450.173	89.05761
450.384	-5.79519
450.595	74.29967
450.806	72.19148
451.017	2.63424
451.228	76.40788
451.439	116.46812
451.65	78.51611
451.861	101.70815
452.072	44.78711
452.283	95.38278
452.494	67.97517
452.705	93.27437
452.915	55.32679
453.126	19.49425
453.337	27.92483
453.548	103.81665
453.759	78.51611
453.97	17.38667
454.181	154.42718
454.391	78.51611
454.602	70.08331
454.813	44.78711
455.024	70.08331
455.235	53.21881
455.445	49.00291
455.656	133.33796
455.867	13.17157
456.078	76.40788
456.288	99.59967
456.499	40.5714
456.71	82.73264
456.921	46.895
457.131	116.46812
457.342	86.94927
457.553	72.19148
457.763	141.77339
457.974	124.90287
458.184	59.54283
458.395	57.4348
458.606	120.68545
458.816	162.86346
459.027	82.73264
459.237	101.70815
459.448	158.64528
459.659	103.81665
459.869	63.75895
460.08	36.35578
460.29	181.84631
460.501	122.79415
460.711	131.22915
460.922	131.22915
461.132	51.11085
461.343	65.86705
461.553	112.25088
461.764	65.86705
461.974	70.08331
462.184	120.68545
462.395	217.70731
462.605	234.58507
462.816	93.27437
463.026	164.97259
463.236	217.70731
463.447	145.99124
463.657	91.16598
463.867	205.04983
464.078	198.72135
464.288	238.8047
464.498	230.36551
464.709	211.37848
464.919	188.1743
465.129	167.08173
465.339	148.10019
465.55	243.02442
465.76	228.25576
465.97	145.99124
466.18	205.04983
466.391	270.45441
466.601	299.99796
466.811	240.91455
467.021	272.56455
467.231	213.48807
467.441	245.1343
467.651	295.77723
467.862	243.02442
468.072	325.32385
468.282	306.32919
468.492	215.59768
468.702	378.09425
468.912	373.87222
469.122	365.42837
469.332	312.66058
469.542	281.00526
469.752	363.31745
469.962	337.98775
470.172	481.5541
470.382	356.9848
470.592	485.77775
470.802	483.66592
471.012	454.1019
471.222	411.87285
471.432	534.35382
471.642	477.33052
471.852	432.98659
472.062	589.27478
472.272	642.09171
472.482	610.4006
472.691	658.99475
472.901	559.70082
473.111	570.26265
473.321	663.22063
473.531	690.68998
473.741	673.78553
473.95	783.67688
474.16	661.10768
474.37	830.17761
474.58	800.58571
474.79	825.95009
474.999	796.35845
475.209	872.4548
475.419	849.20191
475.628	929.53424
475.838	891.48064
476.048	973.93315
476.258	1037.36528
476.467	1100.80262
476.677	1128.29355
476.886	1198.08145
477.096	1128.29355
477.306	1259.41335
477.515	1263.64323
477.725	1312.28747
477.935	1223.45986
478.144	1250.95363
478.354	1077.54171
478.563	1515.33103
478.773	1324.97745
478.982	1625.3114
479.192	1591.47174
479.401	1587.24175
479.611	1676.06981
479.82	1583.01175
480.03	1657.03557
480.239	1845.2509
480.449	1743.74511
480.658	1938.28829
480.868	1813.5314
481.077	1921.37318
481.287	1836.79247
481.496	2094.73394
481.705	2111.64469
481.915	2039.77074
482.124	2082.05056
482.333	2177.16916
482.543	2303.96753
482.752	2301.85449
482.961	2259.59177
483.171	2344.11341
483.38	2466.64135
483.589	2411.71939
483.799	2447.63073
484.008	2715.80442
484.217	2428.61923
484.426	2675.6965
484.636	2449.74306
484.845	2850.86939
485.054	2663.02988
485.263	2783.34387
485.472	2753.79704
485.682	2939.47464
485.891	2861.41896
486.1	2819.21857
486.309	2979.54948
486.518	2983.76757
486.727	2985.8766
486.936	3162.9793
487.146	3053.35729
487.355	3230.41728
487.564	3087.09171
487.773	3424.20497
487.982	3304.15801
488.191	3390.51332
488.4	3478.94416
488.609	3592.59394
488.818	3577.8646
489.027	3723.01347
489.236	3601.0103
489.445	3815.52439
489.654	3670.43375
489.863	3870.17203
490.072	3773.47866
490.281	3880.67966
490.49	3895.38949
490.698	3939.51306
490.907	4029.83341
491.116	4025.6333
491.325	3966.82319
491.534	4034.03344
491.743	4021.43312
491.952	4216.65391
492.16	4417.97942
492.369	4273.29675
492.578	4424.26763
492.787	4376.05303
492.996	4227.1445
493.204	4365.57008
493.413	4428.45965
493.622	4593.97427
493.831	4516.47194
494.039	4696.56547
494.248	4487.13883
494.457	4704.93788
494.665	4617.00963
494.874	4884.85701
495.083	4771.90415
495.291	4815.83816
495.5	4633.76092
495.709	4989.3835
495.917	4832.57228
496.126	5029.08848
496.335	5118.91629
496.543	5237.92413
496.752	5024.9094
496.96	5231.66245
497.169	5396.48319
497.377	5235.83693
497.586	5346.42653
497.794	5329.73798
498.003	5281.75003
498.211	5504.89287
498.42	5315.13426
498.628	5808.93332
498.837	5486.13421
499.045	5636.15008
499.254	5413.16574
499.462	5571.57489
499.671	5446.52633
499.879	5454.86554
500.087	5563.24095
500.296	5777.71947
500.504	5611.15592
500.713	5802.69098
500.921	5729.84792
501.129	5752.74457
501.338	5761.06991
501.546	6118.70275
501.754	5835.98103
501.962	5996.10494
502.171	6002.34071
502.379	6110.39362
502.587	6021.04673
502.795	6247.44619
503.004	6070.92013
503.212	6309.70905
503.42	6120.77997
503.628	6465.27428
503.837	6318.00917
504.045	6332.53349
504.253	6318.00917
504.461	6432.09802
504.669	6224.61119
504.877	6537.82661
505.085	6475.64064
505.294	6709.7661
505.502	6568.91178
505.71	6807.05925
505.918	6585.48841
506.126	6792.57198
506.334	6498.44458
506.542	6792.57198
506.75	6388.54515
506.958	6881.54757
507.166	6662.13611
507.374	6933.25826
507.582	6786.36281
507.79	6904.30202
507.998	7073.83999
508.206	7051.10587
508.414	6945.66672
508.622	7059.37313
508.83	6889.82223
509.037	7292.77617
509.245	6939.46259
509.453	7303.09721
509.661	7187.47005
509.869	7451.65967
510.077	6902.23355
510.285	7261.80974
510.492	7181.27378
510.7	7369.13893
510.908	7195.73143
511.116	7214.31824
511.324	7251.48649
511.531	7404.21449
511.739	7538.26917
511.947	7567.13058
512.155	7447.53445
512.362	7542.39249
512.57	7538.26917
512.778	7727.85342
512.985	7560.94634
513.193	7633.08378
513.401	7715.49469
513.608	7649.56867
513.816	7699.01522
514.024	7707.25512
514.231	7544.45411
514.439	7787.5766
514.646	7896.68054
514.854	8106.49179
515.061	7937.83674
515.269	7849.34071
515.477	7933.72149
515.684	8026.29483
515.892	7909.02827
516.099	8155.82855
516.307	8077.70667
516.514	8178.43739
516.722	8044.80455
516.929	8184.60302
517.136	8223.64784
517.344	8233.92161
517.551	7962.52652
517.759	8418.7656
517.966	8408.50062
518.173	8509.07677
518.381	8537.80441
518.588	8472.13577
518.796	8431.08294
519.003	8708.04266
519.21	8412.60667
519.418	8554.21853
519.625	8324.30952
519.832	8539.85624
520.039	8340.73962
520.247	8714.19345
520.454	8599.35116
520.661	8857.66527
520.868	8699.84134
521.076	9013.33499
521.283	8718.29388
521.49	8822.83029
521.697	8843.32208
521.904	8980.57091
522.112	8927.31966
522.319	8843.32208
522.526	8744.94493
522.733	9244.60516
522.94	8933.46465
523.147	9125.92748
523.354	9113.64721
523.561	9626.85997
523.768	9242.55947
523.975	9326.41884
524.183	9248.69648
524.39	9218.00995
524.597	9160.71825
524.804	9420.47188
525.011	9447.04584
525.218	9639.11558
525.425	9371.40506
525.632	9438.86953
525.838	9336.64368
526.045	9477.7047
526.252	9367.31573
526.459	9506.31637
526.666	9492.01093
526.873	9777.97372
527.08	9824.92454
527.287	9933.08559
527.494	9710.59552
527.701	10059.56166
527.907	9782.05671
528.114	9967.77003
528.321	9859.62223
528.528	9973.89038
528.735	9912.68101
528.941	10108.50542
529.148	10157.4411
529.355	10084.03456
529.562	10063.64062
529.768	10285.85951
529.975	9953.48871
530.182	10016.72918
530.388	10204.3303
530.595	10234.9063
530.802	10214.52264
531.008	10214.52264
531.215	10018.76896
531.422	10312.35185
531.628	10312.35185
531.835	10275.66954
532.042	10344.95471
532.248	10471.25902
532.455	10259.36489
532.661	10721.68599
532.868	10475.33252
533.074	10640.26686
533.281	10436.63217
533.487	10978.03256
533.694	10648.40965
533.9	10967.86355
534.107	10796.98155
534.313	10959.72814
534.52	10957.69426
534.726	11134.60059
534.933	10784.77256
535.139	11067.50793
535.345	10809.19011
535.552	10921.08246
535.758	10866.15785
535.965	11217.94198
536.171	11071.57449
536.377	11319.5542
536.584	11061.40802
536.79	11303.29796
536.996	11508.48653
537.203	11345.96921
537.409	11124.43579
537.615	11419.10972
537.821	11211.84443
538.028	11264.68678
538.234	11268.75129
538.44	11244.36363
538.646	11305.33002
538.853	11616.12065
539.059	11307.36208
539.265	11486.14407
539.471	11443.48707
539.677	11622.21238
539.883	11721.699
540.09	11804.92664
540.296	11656.73058
540.502	11823.19418
540.708	11792.74789
540.914	11892.19873
541.12	11731.8495
541.326	12028.15053
541.532	11873.93376
541.738	12113.35594
541.944	11977.42647
542.15	12024.09279
542.356	12166.09541
542.562	12310.08941
542.768	12153.92521
542.974	12172.1804
543.18	12164.06706
543.386	12271.55935
543.592	12129.58401
543.798	12543.24512
544.004	12141.75475
544.21	12478.37579
544.415	12482.43031
544.621	12547.29923
544.827	12401.33478
545.033	12636.48349
545.239	12500.67536
545.445	12849.26313
545.651	12618.24222
545.856	12689.17774
546.062	12449.99337
546.268	12660.80441
546.474	12506.75693
546.679	12689.17774
546.885	12425.66456
547.091	12865.47236
547.297	12636.48349
547.502	12920.176
547.708	12869.52462
547.914	13017.41752
548.119	12863.44623
548.325	12865.47236
548.531	12826.97486
548.736	12980.95333
548.942	12833.05354
549.147	13074.13641
549.353	12950.56524
549.559	13193.63896
549.764	13266.548
549.97	13061.98268
550.175	12938.40969
550.381	13535.8599
550.586	13140.97882
550.792	13367.80134
550.997	13497.39097
551.203	13491.3168
551.408	13059.95705
551.614	13738.30735
551.819	13525.73663
552.025	13430.5733
552.23	13282.74924
552.435	13616.84292
552.641	13527.76129
552.846	13730.21008
553.052	13622.91642
553.257	13855.71234
553.462	13711.99104
553.668	13861.78475
553.873	13616.84292
554.078	13742.35596
554.283	13693.77174
554.489	13835.4708
554.694	14050.01752
554.899	13811.18058
555.105	14043.94583
555.31	14256.44314
555.515	13880.00181
555.72	14343.45959
555.925	14171.44699
556.131	14122.87615
556.336	13922.50745
556.541	14533.67127
556.746	14167.39947
556.951	14021.68279
557.156	13981.20379
557.361	14242.27735
557.567	14017.63494
557.772	14390.00197
557.977	14021.68279
558.182	14244.30104
558.387	14367.74268
558.592	14545.81202
558.797	14266.5615
559.002	14493.20175
559.207	14549.85893
559.412	14685.42772
559.617	14612.58539
559.822	14790.6423
560.027	14157.28062
560.232	14450.70818
560.437	14450.70818
560.642	14612.58539
560.847	14784.57229
561.051	14653.05351
561.256	14379.88413
561.461	14798.73565
561.666	14752.19877
561.871	14612.58539
562.076	14578.18715
562.281	14912.04134
562.485	14474.9903
562.69	15041.53175
562.895	14309.05813
563.1	14725.89514
563.305	14351.55398
563.509	14926.20443
563.714	15061.76451
563.919	15211.48662
564.123	14790.6423
564.328	15177.09101
564.533	14580.21058
564.737	14744.10536
564.942	14897.87823
565.147	15084.02053
565.351	14984.87987
565.556	15102.22998
565.761	15029.39208
565.965	15185.18409
566.17	14794.68898
566.374	15100.20671
566.579	15235.76588
566.784	15164.95139
566.988	15597.93732
567.193	15452.25758
567.397	15253.97534
567.602	15512.95707
567.806	15001.06614
568.011	15458.32751
568.215	15589.8439
568.42	15308.60382
568.624	15533.19035
568.828	15411.79152
569.033	15015.22912
569.237	15648.52142
569.442	15349.06948
569.646	15541.28368
569.85	15535.21368
570.055	15654.59155
570.259	15539.26035
570.463	16037.02888
570.668	15672.80198
570.872	15858.9576
571.076	15848.84021
571.281	15962.15674
571.485	16075.4775
571.689	16008.69866
571.893	15964.18029
572.098	15972.27449
572.302	15672.80198
572.506	15982.39227
572.71	15826.58206
572.914	16265.70544
573.119	16055.24132
573.323	15832.65245
573.527	15986.43939
573.731	16113.92667
