Data from Scatter_Coeff_Baseline_USB4F045381__35__0035.txt Node

Date: Thu Feb 13 19:23:06 EST 2025
User: mmckonesweet
Spectrometer: USB4F04538
Trigger mode: 4
Integration Time (sec): 2.400000E-3
Scans to average: 1
Electric dark correction enabled: true
Nonlinearity correction enabled: true
Boxcar width: 0
XAxis mode: Wavelengths
Number of Pixels in Spectrum: 3648
>>>>>Begin Spectral Data<<<<<
345.52	-7.90249
345.736	-7.90249
345.952	-7.90249
346.168	-52.15005
346.384	-50.04327
346.6	15.2791
346.816	23.70949
347.032	-16.33143
347.248	-5.79519
347.464	15.2791
347.68	-60.57691
347.896	-14.22423
348.112	11.06405
348.328	-1.58052
348.544	57.4348
348.76	-56.36353
348.975	32.14026
349.191	-18.43861
349.407	21.60186
349.623	6.8491
349.839	23.70949
350.055	59.54283
350.27	74.29967
350.486	11.06405
350.702	67.97517
350.918	-33.18815
351.133	36.35578
351.349	42.67924
351.565	44.78711
351.781	19.49425
351.996	-31.08114
352.212	-45.82964
352.428	-73.21644
352.644	-14.22423
352.859	23.70949
353.075	23.70949
353.291	44.78711
353.506	40.5714
353.722	-24.75999
353.938	-47.93647
354.153	51.11085
354.369	6.8491
354.584	80.62436
354.8	-50.04327
355.016	-3.68787
355.231	32.14026
355.447	51.11085
355.662	-35.29512
355.878	-12.11701
356.093	21.60186
356.309	-10.00976
356.524	-52.15005
356.74	57.4348
356.955	11.06405
357.171	-41.61591
357.386	6.8491
357.602	-28.97412
357.817	-18.43861
358.033	-24.75999
358.248	23.70949
358.464	27.92483
358.679	-10.00976
358.895	49.00291
359.11	8.95656
359.325	-10.00976
359.541	8.95656
359.756	63.75895
359.972	49.00291
360.187	38.46358
360.402	-52.15005
360.618	-1.58052
360.833	0.52684
361.048	-43.72279
361.264	19.49425
361.479	-24.75999
361.694	-1.58052
361.909	-37.40208
362.125	-43.72279
362.34	30.03253
362.555	-35.29512
362.77	-77.42941
362.986	49.00291
363.201	-14.22423
363.416	-52.15005
363.631	25.81715
363.847	65.86705
364.062	-18.43861
364.277	42.67924
364.492	-18.43861
364.707	-22.65289
364.922	-35.29512
365.138	57.4348
365.353	2.63424
365.568	11.06405
365.783	40.5714
365.998	55.32679
366.213	-20.54576
366.428	-1.58052
366.643	63.75895
366.858	4.74166
367.073	2.63424
367.288	51.11085
367.503	36.35578
367.718	6.8491
367.933	-10.00976
368.148	-47.93647
368.363	-22.65289
368.578	-7.90249
368.793	46.895
369.008	-73.21644
369.223	-7.90249
369.438	13.17157
369.653	6.8491
369.868	-33.18815
370.083	-92.17399
370.298	0.52684
370.513	-43.72279
370.728	103.81665
370.943	-45.82964
371.157	-22.65289
371.372	-20.54576
371.587	38.46358
371.802	49.00291
372.017	-26.86706
372.232	25.81715
372.446	19.49425
372.661	-16.33143
372.876	8.95656
373.091	-12.11701
373.306	-56.36353
373.52	17.38667
373.735	2.63424
373.95	6.8491
374.165	-31.08114
374.379	-10.00976
374.594	-24.75999
374.809	32.14026
375.023	57.4348
375.238	2.63424
375.453	25.81715
375.667	49.00291
375.882	-43.72279
376.097	-39.50901
376.311	53.21881
376.526	25.81715
376.741	15.2791
376.955	-35.29512
377.17	2.63424
377.384	0.52684
377.599	30.03253
377.813	-33.18815
378.028	78.51611
378.242	36.35578
378.457	-12.11701
378.672	36.35578
378.886	8.95656
379.101	-60.57691
379.315	44.78711
379.53	-18.43861
379.744	42.67924
379.958	-26.86706
380.173	-26.86706
380.387	-47.93647
380.602	-43.72279
380.816	65.86705
381.031	-60.57691
381.245	-39.50901
381.459	-31.08114
381.674	74.29967
381.888	-77.42941
382.103	11.06405
382.317	70.08331
382.531	25.81715
382.746	-18.43861
382.96	-16.33143
383.174	46.895
383.388	-26.86706
383.603	49.00291
383.817	-1.58052
384.031	2.63424
384.246	40.5714
384.46	6.8491
384.674	6.8491
384.888	27.92483
385.103	6.8491
385.317	-31.08114
385.531	-16.33143
385.745	42.67924
385.959	8.95656
386.174	-10.00976
386.388	-66.89679
386.602	19.49425
386.816	-1.58052
387.03	4.74166
387.244	27.92483
387.458	-64.79019
387.672	-18.43861
387.887	4.74166
388.101	-33.18815
388.315	27.92483
388.529	8.95656
388.743	55.32679
388.957	-43.72279
389.171	4.74166
389.385	67.97517
389.599	57.4348
389.813	-12.11701
390.027	-64.79019
390.241	32.14026
390.455	11.06405
390.669	25.81715
390.883	-22.65289
391.097	-14.22423
391.311	-10.00976
391.525	34.24801
391.738	11.06405
391.952	-18.43861
392.166	6.8491
392.38	40.5714
392.594	-26.86706
392.808	19.49425
393.022	40.5714
393.236	11.06405
393.449	-5.79519
393.663	49.00291
393.877	11.06405
394.091	-35.29512
394.305	-10.00976
394.518	53.21881
394.732	-35.29512
394.946	-5.79519
395.16	40.5714
395.373	38.46358
395.587	-26.86706
395.801	17.38667
396.015	-39.50901
396.228	-60.57691
396.442	-14.22423
396.656	-20.54576
396.869	4.74166
397.083	36.35578
397.297	-7.90249
397.51	-16.33143
397.724	34.24801
397.938	-12.11701
398.151	8.95656
398.365	-33.18815
398.578	0.52684
398.792	-26.86706
399.005	-18.43861
399.219	-12.11701
399.433	-26.86706
399.646	6.8491
399.86	-41.61591
400.073	32.14026
400.287	32.14026
400.5	17.38667
400.714	-10.00976
400.927	-26.86706
401.141	2.63424
401.354	-41.61591
401.567	49.00291
401.781	-5.79519
401.994	70.08331
402.208	36.35578
402.421	-83.74867
402.635	17.38667
402.848	-1.58052
403.061	0.52684
403.275	2.63424
403.488	-1.58052
403.701	2.63424
403.915	61.65088
404.128	34.24801
404.341	36.35578
404.555	27.92483
404.768	19.49425
404.981	103.81665
405.195	27.92483
405.408	-1.58052
405.621	67.97517
405.834	-10.00976
406.048	76.40788
406.261	-1.58052
406.474	2.63424
406.687	36.35578
406.9	65.86705
407.114	70.08331
407.327	0.52684
407.54	97.49122
407.753	4.74166
407.966	-18.43861
408.179	36.35578
408.392	40.5714
408.605	-7.90249
408.819	11.06405
409.032	38.46358
409.245	-73.21644
409.458	34.24801
409.671	46.895
409.884	15.2791
410.097	-39.50901
410.31	49.00291
410.523	51.11085
410.736	-33.18815
410.949	25.81715
411.162	-1.58052
411.375	25.81715
411.588	11.06405
411.801	38.46358
412.014	65.86705
412.227	-69.00336
412.44	-5.79519
412.653	-62.68356
412.865	-24.75999
413.078	19.49425
413.291	8.95656
413.504	42.67924
413.717	19.49425
413.93	4.74166
414.143	-35.29512
414.356	-83.74867
414.568	13.17157
414.781	6.8491
414.994	8.95656
415.207	-14.22423
415.42	17.38667
415.632	30.03253
415.845	2.63424
416.058	19.49425
416.271	82.73264
416.483	-66.89679
416.696	23.70949
416.909	36.35578
417.121	40.5714
417.334	23.70949
417.547	-14.22423
417.759	61.65088
417.972	15.2791
418.185	-3.68787
418.397	2.63424
418.61	67.97517
418.823	-50.04327
419.035	44.78711
419.248	91.16598
419.46	-24.75999
419.673	11.06405
419.885	34.24801
420.098	40.5714
420.311	-28.97412
420.523	-1.58052
420.736	-14.22423
420.948	8.95656
421.161	36.35578
421.373	6.8491
421.586	-26.86706
421.798	55.32679
422.01	44.78711
422.223	34.24801
422.435	46.895
422.648	17.38667
422.86	40.5714
423.073	44.78711
423.285	11.06405
423.497	6.8491
423.71	23.70949
423.922	72.19148
424.134	0.52684
424.347	74.29967
424.559	59.54283
424.771	23.70949
424.984	-22.65289
425.196	-18.43861
425.408	-22.65289
425.621	65.86705
425.833	32.14026
426.045	-1.58052
426.257	6.8491
426.47	23.70949
426.682	6.8491
426.894	51.11085
427.106	19.49425
427.318	40.5714
427.531	-66.89679
427.743	-5.79519
427.955	17.38667
428.167	27.92483
428.379	2.63424
428.591	8.95656
428.804	-33.18815
429.016	57.4348
429.228	-37.40208
429.44	44.78711
429.652	-14.22423
429.864	-5.79519
430.076	-60.57691
430.288	38.46358
430.5	17.38667
430.712	-50.04327
430.924	-47.93647
431.136	2.63424
431.348	-33.18815
431.56	49.00291
431.772	-39.50901
431.984	17.38667
432.196	8.95656
432.408	-56.36353
432.62	32.14026
432.832	-5.79519
433.044	-3.68787
433.256	70.08331
433.468	11.06405
433.679	38.46358
433.891	42.67924
434.103	-20.54576
434.315	-5.79519
434.527	78.51611
434.739	-39.50901
434.95	-14.22423
435.162	-5.79519
435.374	-26.86706
435.586	-41.61591
435.798	-52.15005
436.009	6.8491
436.221	-5.79519
436.433	2.63424
436.645	-58.47023
436.856	36.35578
437.068	-26.86706
437.28	-47.93647
437.491	-39.50901
437.703	-33.18815
437.915	-10.00976
438.126	34.24801
438.338	32.14026
438.55	0.52684
438.761	15.2791
438.973	-7.90249
439.184	-24.75999
439.396	70.08331
439.608	-3.68787
439.819	-24.75999
440.031	57.4348
440.242	17.38667
440.454	59.54283
440.665	23.70949
440.877	27.92483
441.088	27.92483
441.3	-5.79519
441.511	2.63424
441.723	11.06405
441.934	23.70949
442.146	57.4348
442.357	23.70949
442.569	19.49425
442.78	13.17157
442.991	-10.00976
443.203	-7.90249
443.414	44.78711
443.626	36.35578
443.837	-31.08114
444.048	-28.97412
444.26	-54.2568
444.471	6.8491
444.682	6.8491
444.894	27.92483
445.105	13.17157
445.316	-14.22423
445.528	-58.47023
445.739	34.24801
445.95	-14.22423
446.161	65.86705
446.373	34.24801
446.584	-14.22423
446.795	-5.79519
447.006	8.95656
447.217	15.2791
447.429	-60.57691
447.64	-7.90249
447.851	-12.11701
448.062	-56.36353
448.273	-41.61591
448.484	6.8491
448.695	40.5714
448.907	-12.11701
449.118	-52.15005
449.329	-1.58052
449.54	-41.61591
449.751	-60.57691
449.962	-12.11701
450.173	0.52684
450.384	105.92518
450.595	23.70949
450.806	-43.72279
451.017	-26.86706
451.228	6.8491
451.439	38.46358
451.65	-41.61591
451.861	-16.33143
452.072	25.81715
452.283	93.27437
452.494	49.00291
452.705	93.27437
452.915	-73.21644
453.126	0.52684
453.337	55.32679
453.548	21.60186
453.759	40.5714
453.97	-22.65289
454.181	17.38667
454.391	38.46358
454.602	15.2791
454.813	32.14026
455.024	74.29967
455.235	19.49425
455.445	-16.33143
455.656	-22.65289
455.867	-47.93647
456.078	116.46812
456.288	-45.82964
456.499	27.92483
456.71	-10.00976
456.921	51.11085
457.131	-35.29512
457.342	53.21881
457.553	40.5714
457.763	51.11085
457.974	15.2791
458.184	25.81715
458.395	70.08331
458.606	57.4348
458.816	-37.40208
459.027	23.70949
459.237	-1.58052
459.448	-18.43861
459.659	-1.58052
459.869	-1.58052
460.08	57.4348
460.29	36.35578
460.501	36.35578
460.711	0.52684
460.922	-43.72279
461.132	4.74166
461.343	-39.50901
461.553	44.78711
461.764	11.06405
461.974	15.2791
462.184	25.81715
462.395	4.74166
462.605	61.65088
462.816	53.21881
463.026	2.63424
463.236	80.62436
463.447	-43.72279
463.657	-1.58052
463.867	-56.36353
464.078	46.895
464.288	-69.00336
464.498	4.74166
464.709	67.97517
464.919	-24.75999
465.129	-47.93647
465.339	6.8491
465.55	-31.08114
465.76	-12.11701
465.97	8.95656
466.18	46.895
466.391	21.60186
466.601	-52.15005
466.811	-31.08114
467.021	44.78711
467.231	-26.86706
467.441	-102.70506
467.651	82.73264
467.862	-83.74867
468.072	17.38667
468.282	32.14026
468.492	143.8823
468.702	-1.58052
468.912	6.8491
469.122	-56.36353
469.332	49.00291
469.542	-1.58052
469.752	-31.08114
469.962	-10.00976
470.172	42.67924
470.382	23.70949
470.592	-33.18815
470.802	-35.29512
471.012	34.24801
471.222	-26.86706
471.432	57.4348
471.642	30.03253
471.852	-1.58052
472.062	25.81715
472.272	-5.79519
472.482	21.60186
472.691	-16.33143
472.901	65.86705
473.111	23.70949
473.321	15.2791
473.531	6.8491
473.741	23.70949
473.95	23.70949
474.16	-35.29512
474.37	25.81715
474.58	57.4348
474.79	-69.00336
474.999	40.5714
475.209	21.60186
475.419	8.95656
475.628	-73.21644
475.838	23.70949
476.048	32.14026
476.258	-5.79519
476.467	65.86705
476.677	-52.15005
476.886	8.95656
477.096	8.95656
477.306	34.24801
477.515	11.06405
477.725	49.00291
477.935	59.54283
478.144	-1.58052
478.354	38.46358
478.563	27.92483
478.773	74.29967
478.982	-1.58052
479.192	8.95656
479.401	-28.97412
479.611	53.21881
479.82	15.2791
480.03	-52.15005
480.239	42.67924
480.449	-10.00976
480.658	-1.58052
480.868	-24.75999
481.077	-1.58052
481.287	27.92483
481.496	-1.58052
481.705	32.14026
481.915	-35.29512
482.124	15.2791
482.333	6.8491
482.543	51.11085
482.752	11.06405
482.961	49.00291
483.171	32.14026
483.38	112.25088
483.589	-18.43861
483.799	80.62436
484.008	-43.72279
484.217	44.78711
484.426	15.2791
484.636	-54.2568
484.845	30.03253
485.054	15.2791
485.263	8.95656
485.472	40.5714
485.682	53.21881
485.891	46.895
486.1	15.2791
486.309	120.68545
486.518	0.52684
486.727	97.49122
486.936	-12.11701
487.146	108.03372
487.355	42.67924
487.564	21.60186
487.773	23.70949
487.982	15.2791
488.191	95.38278
488.4	46.895
488.609	-5.79519
488.818	101.70815
489.027	11.06405
489.236	116.46812
489.445	21.60186
489.654	2.63424
489.863	76.40788
490.072	141.77339
490.281	15.2791
490.49	-5.79519
490.698	27.92483
490.907	34.24801
491.116	38.46358
491.325	-77.42941
491.534	40.5714
491.743	97.49122
491.952	57.4348
492.16	80.62436
492.369	-7.90249
492.578	-14.22423
492.787	53.21881
492.996	67.97517
493.204	2.63424
493.413	99.59967
493.622	82.73264
493.831	61.65088
494.039	82.73264
494.248	70.08331
494.457	137.55563
494.665	152.31817
494.874	6.8491
495.083	-14.22423
495.291	34.24801
495.5	2.63424
495.709	-5.79519
495.917	57.4348
496.126	99.59967
496.335	42.67924
496.543	51.11085
496.752	40.5714
496.96	65.86705
497.169	4.74166
497.377	74.29967
497.586	110.14229
497.794	116.46812
498.003	17.38667
498.211	27.92483
498.42	55.32679
498.628	53.21881
498.837	120.68545
499.045	36.35578
499.254	61.65088
499.462	34.24801
499.671	76.40788
499.879	55.32679
500.087	53.21881
500.296	40.5714
500.504	89.05761
500.713	70.08331
500.921	82.73264
501.129	23.70949
501.338	116.46812
501.546	6.8491
501.754	101.70815
501.962	38.46358
502.171	15.2791
502.379	15.2791
502.587	6.8491
502.795	40.5714
503.004	82.73264
503.212	99.59967
503.42	11.06405
503.628	55.32679
503.837	74.29967
504.045	99.59967
504.253	101.70815
504.461	114.35949
504.669	116.46812
504.877	65.86705
505.085	169.1909
505.294	34.24801
505.502	137.55563
505.71	93.27437
505.918	70.08331
506.126	103.81665
506.334	101.70815
506.542	124.90287
506.75	2.63424
506.958	67.97517
507.166	80.62436
507.374	101.70815
507.582	101.70815
507.79	108.03372
507.998	127.01161
508.206	84.84094
508.414	65.86705
508.622	61.65088
508.83	114.35949
509.037	82.73264
509.245	72.19148
509.453	110.14229
509.661	70.08331
509.869	112.25088
510.077	105.92518
510.285	86.94927
510.492	46.895
510.7	59.54283
510.908	59.54283
511.116	89.05761
511.324	65.86705
511.531	74.29967
511.739	49.00291
511.947	110.14229
512.155	99.59967
512.362	139.6645
512.57	99.59967
512.778	177.62776
512.985	86.94927
513.193	129.12037
513.401	148.10019
513.608	57.4348
513.816	82.73264
514.024	44.78711
514.231	70.08331
514.439	108.03372
514.646	55.32679
514.854	61.65088
515.061	133.33796
515.269	190.28367
515.477	84.84094
515.684	129.12037
515.892	150.20917
516.099	120.68545
516.307	103.81665
516.514	152.31817
516.722	78.51611
516.929	158.64528
517.136	158.64528
517.344	219.81696
517.551	150.20917
517.759	89.05761
517.966	169.1909
518.173	78.51611
518.381	228.25576
518.588	127.01161
518.796	110.14229
519.003	93.27437
519.21	141.77339
519.418	110.14229
519.625	84.84094
519.832	213.48807
520.039	202.94032
520.247	139.6645
520.454	158.64528
520.661	145.99124
520.868	99.59967
521.076	226.14603
521.283	112.25088
521.49	205.04983
521.697	175.51851
521.904	205.04983
522.112	133.33796
522.319	173.40929
522.526	91.16598
522.733	194.50247
522.94	221.92663
523.147	116.46812
523.354	150.20917
523.561	234.58507
523.768	112.25088
523.975	183.95562
524.183	116.46812
524.39	200.83082
524.597	186.06495
524.804	247.24421
525.011	181.84631
525.218	251.46407
525.425	249.35413
525.632	154.42718
525.838	183.95562
526.045	192.39306
526.252	124.90287
526.459	207.15936
526.666	228.25576
526.873	247.24421
527.08	255.68401
527.287	188.1743
527.494	215.59768
527.701	190.28367
527.907	234.58507
528.114	262.01407
528.321	293.6669
528.528	238.8047
528.735	154.42718
528.941	224.03632
529.148	262.01407
529.355	283.11549
529.562	177.62776
529.768	238.8047
529.975	318.99213
530.182	283.11549
530.388	211.37848
530.595	232.47528
530.802	205.04983
531.008	243.02442
531.215	245.1343
531.422	207.15936
531.628	264.12413
531.835	268.3443
532.042	238.8047
532.248	276.78487
532.455	243.02442
532.661	285.22573
532.868	293.6669
533.074	333.76638
533.281	310.5501
533.487	352.76311
533.694	327.43445
533.9	238.8047
534.107	344.31995
534.313	346.43071
534.52	215.59768
534.726	289.44628
534.933	276.78487
535.139	361.20655
535.345	306.32919
535.552	401.31658
535.758	346.43071
535.965	432.98659
536.171	373.87222
536.377	344.31995
536.584	405.53904
536.79	439.32102
536.996	418.2068
537.203	331.65572
537.409	413.98415
537.615	462.54846
537.821	373.87222
538.028	454.1019
538.234	403.4278
538.44	399.20538
538.646	428.76371
538.853	432.98659
539.059	378.09425
539.265	380.20529
539.471	329.54508
539.677	477.33052
539.883	407.65029
540.09	458.32515
540.296	373.87222
540.502	483.66592
540.708	443.54405
540.914	403.4278
541.12	456.21352
541.326	487.88959
541.532	365.42837
541.738	462.54846
541.944	473.107
542.15	502.6729
542.356	327.43445
542.562	576.59991
542.768	523.79316
542.974	538.57818
543.18	513.23285
543.386	515.34488
543.592	515.34488
543.798	536.46599
544.004	458.32515
544.21	601.95012
544.415	394.98302
544.621	597.72496
544.827	506.89684
545.033	595.61239
545.239	528.01738
545.445	563.92551
545.651	481.5541
545.856	534.35382
546.062	614.62592
546.268	663.22063
546.474	506.89684
546.679	597.72496
546.885	513.23285
547.091	540.69038
547.297	555.47618
547.502	620.96399
547.708	656.88183
547.914	597.72496
548.119	542.8026
548.325	627.30218
548.531	593.49984
548.736	673.78553
548.942	589.27478
549.147	635.75326
549.353	511.12083
549.559	703.36879
549.764	580.82481
549.97	688.57688
550.175	648.43026
550.381	713.93477
550.586	601.95012
550.792	853.42963
550.997	701.25563
551.203	768.88217
551.408	684.35073
551.614	796.35845
551.819	690.68998
552.025	648.43026
552.23	716.048
552.435	792.13122
552.641	739.29423
552.846	770.99567
553.052	792.13122
553.257	686.4638
553.462	728.7276
553.668	836.51897
553.873	834.40517
554.078	711.82155
554.283	741.40759
554.489	868.22692
554.694	758.31482
554.899	912.62122
555.105	838.63277
555.31	914.73532
555.515	720.27449
555.72	927.42009
555.925	849.20191
556.131	963.3617
556.336	768.88217
556.541	952.79042
556.746	918.96355
556.951	830.17761
557.156	868.22692
557.361	944.33353
557.567	844.97423
557.772	1014.10618
557.977	830.17761
558.182	961.24743
558.387	874.56875
558.592	976.04747
558.797	876.6827
559.002	973.93315
559.207	921.07767
559.412	1035.25078
559.617	986.61912
559.822	971.81885
560.027	921.07767
560.232	1066.96877
560.437	1011.99175
560.642	961.24743
560.847	914.73532
561.051	1075.42711
561.256	944.33353
561.461	1071.19793
561.666	1062.73964
561.871	1107.14661
562.076	1045.82331
562.281	1050.05236
562.485	1096.57332
562.69	1094.45868
562.895	1107.14661
563.1	1299.59756
563.305	1145.21142
563.509	1092.34404
563.714	1056.39597
563.919	1151.5557
564.123	1037.36528
564.328	1086.00015
564.533	1077.54171
564.737	1267.87311
564.942	995.07656
565.147	1100.80262
565.351	995.07656
565.556	1113.49065
565.761	1054.28143
565.965	1054.28143
566.17	1191.73692
566.374	1240.37905
566.579	1176.93315
566.784	1231.91943
566.988	1088.11478
567.193	1225.57474
567.397	1132.52299
567.602	1344.01253
567.806	1187.50725
568.011	1363.04772
568.215	1185.39243
568.42	1363.04772
568.624	1282.67779
568.828	1299.59756
569.033	1098.68797
569.237	1324.97745
569.442	1140.98193
569.646	1392.65821
569.85	1371.50784
570.055	1464.56989
570.259	1286.90772
570.463	1475.14515
570.668	1272.10301
570.872	1468.79999
571.076	1318.63245
571.281	1498.41068
571.485	1388.42813
571.689	1456.10968
571.893	1316.51745
572.098	1538.59641
572.302	1346.12754
572.506	1453.99463
572.71	1401.11838
572.914	1453.99463
573.119	1481.4903
573.323	1557.63163
573.527	1377.85294
573.731	1422.26885
573.935	1401.11838
574.139	1633.77123
574.343	1384.19805
574.547	1587.24175
574.751	1458.22473
574.955	1547.05652
575.159	1409.57856
575.364	1621.08147
575.568	1453.99463
575.772	1642.23103
575.976	1544.9415
576.18	1657.03557
576.383	1595.70173
576.587	1811.41673
576.791	1591.47174
576.995	1688.75917
577.199	1599.9317
577.403	1737.40069
577.607	1604.16167
577.811	1684.52939
578.015	1580.89675
578.219	1646.46091
578.422	1686.64428
578.626	1699.33356
578.83	1688.75917
579.034	1638.00113
579.238	1747.9747
579.442	1821.99003
579.645	1566.0917
579.849	1798.72862
580.053	1707.79301
580.257	1912.91549
580.46	1781.8109
580.664	1832.56322
580.868	1775.46669
581.071	1885.42739
581.275	1741.63031
581.479	1883.31288
581.682	1739.5155
581.886	1936.17392
582.09	1798.72862
582.293	1942.51701
582.497	1741.63031
582.7	1758.54862
582.904	1847.3655
583.107	1828.33396
