Data from Scatter_Coeff_Baseline_USB4F045381__24__0024.txt Node

Date: Thu Feb 13 19:21:03 EST 2025
User: mmckonesweet
Spectrometer: USB4F04538
Trigger mode: 4
Integration Time (sec): 2.400000E-3
Scans to average: 1
Electric dark correction enabled: true
Nonlinearity correction enabled: true
Boxcar width: 0
XAxis mode: Wavelengths
Number of Pixels in Spectrum: 3648
>>>>>Begin Spectral Data<<<<<
345.52	-16.15583
345.736	-16.15583
345.952	-16.15583
346.168	-5.61958
346.384	42.8549
346.6	36.53143
346.816	19.66988
347.032	-73.04089
347.248	-41.44034
347.464	78.6918
347.68	-28.79853
347.896	17.5623
348.112	0.70246
348.328	-7.72688
348.544	-14.04863
348.76	17.5623
348.975	-5.61958
349.191	47.07066
349.407	21.7775
349.623	34.42366
349.839	-16.15583
350.055	-9.83416
350.27	2.80986
350.486	11.23968
350.702	9.13219
350.918	55.50246
351.133	-14.04863
351.349	-7.72688
351.565	53.39447
351.781	-39.33343
351.996	-7.72688
352.212	68.15085
352.428	17.5623
352.644	17.5623
352.859	-68.82782
353.075	53.39447
353.291	76.58356
353.506	-26.69148
353.722	25.99279
353.938	51.28651
354.153	-30.90556
354.369	61.82655
354.584	63.93463
354.8	59.7185
355.016	53.39447
355.231	-28.79853
355.447	32.3159
355.662	-33.01256
355.878	-35.11954
356.093	21.7775
356.309	9.13219
356.524	78.6918
356.74	53.39447
356.955	-33.01256
357.171	55.50246
357.386	80.80005
357.602	17.5623
357.817	4.91728
358.033	36.53143
358.248	30.20817
358.464	23.88513
358.679	-28.79853
358.895	-56.18797
359.11	-18.26301
359.325	-39.33343
359.541	4.91728
359.756	13.34719
359.972	-41.44034
360.187	21.7775
360.402	-45.65407
360.618	53.39447
360.833	-41.44034
361.048	-16.15583
361.264	122.96987
361.479	32.3159
361.694	-20.37016
361.909	59.7185
362.125	9.13219
362.34	47.07066
362.555	-16.15583
362.77	-16.15583
362.986	-1.40491
363.201	25.99279
363.416	-26.69148
363.631	55.50246
363.847	4.91728
364.062	36.53143
364.277	-28.79853
364.492	13.34719
364.707	66.04272
364.922	-33.01256
365.138	76.58356
365.353	47.07066
365.568	25.99279
365.783	49.17857
365.998	0.70246
366.213	-20.37016
366.428	11.23968
366.643	7.02472
366.858	0.70246
367.073	2.80986
367.288	0.70246
367.503	-11.94141
367.718	17.5623
367.933	42.8549
368.148	57.61047
368.363	11.23968
368.578	93.45007
368.793	-45.65407
369.008	21.7775
369.223	30.20817
369.438	47.07066
369.653	89.23331
369.868	4.91728
370.083	118.75249
370.298	17.5623
370.513	-7.72688
370.728	-41.44034
370.943	-11.94141
371.157	13.34719
371.372	42.8549
371.587	-45.65407
371.802	-83.57314
372.017	-22.47729
372.232	-68.82782
372.446	-3.51226
372.661	21.7775
372.876	13.34719
373.091	17.5623
373.306	-11.94141
373.52	53.39447
373.735	55.50246
373.95	-30.90556
374.165	7.02472
374.379	9.13219
374.594	9.13219
374.809	-11.94141
375.023	-68.82782
375.238	87.12496
375.453	19.66988
375.667	-14.04863
375.882	68.15085
376.097	36.53143
376.311	-24.5844
376.526	34.42366
376.741	44.96277
376.955	25.99279
377.17	59.7185
377.384	89.23331
377.599	13.34719
377.813	13.34719
378.028	70.25899
378.242	17.5623
378.457	-3.51226
378.672	34.42366
378.886	42.8549
379.101	57.61047
379.315	68.15085
379.53	-9.83416
379.744	23.88513
379.958	13.34719
380.173	-18.26301
380.387	40.74705
380.602	9.13219
380.816	21.7775
381.031	-7.72688
381.245	57.61047
381.459	34.42366
381.674	17.5623
381.888	-37.2265
382.103	-1.40491
382.317	57.61047
382.531	9.13219
382.746	0.70246
382.96	30.20817
383.174	19.66988
383.388	57.61047
383.603	-7.72688
383.817	9.13219
384.031	-28.79853
384.246	38.63923
384.46	38.63923
384.674	63.93463
384.888	-1.40491
385.103	-45.65407
385.317	-28.79853
385.531	19.66988
385.745	36.53143
385.959	23.88513
386.174	30.20817
386.388	-28.79853
386.602	25.99279
386.816	93.45007
387.03	17.5623
387.244	101.88386
387.458	9.13219
387.672	34.42366
387.887	76.58356
388.101	30.20817
388.315	2.80986
388.529	66.04272
388.743	23.88513
388.957	34.42366
389.171	-22.47729
389.385	76.58356
389.599	61.82655
389.813	-37.2265
390.027	11.23968
390.241	-9.83416
390.455	17.5623
390.669	51.28651
390.883	-16.15583
391.097	25.99279
391.311	13.34719
391.525	-7.72688
391.738	-37.2265
391.952	-16.15583
392.166	-9.83416
392.38	55.50246
392.594	28.10047
392.808	61.82655
393.022	-37.2265
393.236	108.20943
393.449	-11.94141
393.663	11.23968
393.877	61.82655
394.091	0.70246
394.305	-7.72688
394.518	36.53143
394.732	42.8549
394.946	-43.54722
395.16	30.20817
395.373	30.20817
395.587	57.61047
395.801	63.93463
396.015	28.10047
396.228	49.17857
396.442	25.99279
396.656	-24.5844
396.869	11.23968
397.083	-28.79853
397.297	-22.47729
397.51	85.01664
397.724	-30.90556
397.938	36.53143
398.151	-79.36032
398.365	2.80986
398.578	0.70246
398.792	28.10047
399.005	7.02472
399.219	21.7775
399.433	-35.11954
399.646	-41.44034
399.86	-66.72124
400.073	59.7185
400.287	21.7775
400.5	53.39447
400.714	28.10047
400.927	2.80986
401.141	23.88513
401.354	-24.5844
401.567	-20.37016
401.781	-1.40491
401.994	13.34719
402.208	13.34719
402.421	40.74705
402.635	42.8549
402.848	11.23968
403.061	49.17857
403.275	-11.94141
403.488	25.99279
403.701	57.61047
403.915	2.80986
404.128	51.28651
404.341	32.3159
404.555	2.80986
404.768	-33.01256
404.981	28.10047
405.195	34.42366
405.408	19.66988
405.621	38.63923
405.834	0.70246
406.048	21.7775
406.261	44.96277
406.474	2.80986
406.687	19.66988
406.9	9.13219
407.114	-9.83416
407.327	34.42366
407.54	-24.5844
407.753	-20.37016
407.966	66.04272
408.179	68.15085
408.392	-16.15583
408.605	68.15085
408.819	9.13219
409.032	61.82655
409.245	-30.90556
409.458	-26.69148
409.671	55.50246
409.884	-24.5844
410.097	30.20817
410.31	42.8549
410.523	25.99279
410.736	49.17857
410.949	34.42366
411.162	-75.1474
411.375	-3.51226
411.588	17.5623
411.801	9.13219
412.014	47.07066
412.227	30.20817
412.44	-14.04863
412.653	36.53143
412.865	-58.29468
413.078	55.50246
413.291	28.10047
413.504	-14.04863
413.717	44.96277
413.93	17.5623
414.143	30.20817
414.356	19.66988
414.568	89.23331
414.781	9.13219
414.994	-41.44034
415.207	95.55848
415.42	0.70246
415.632	49.17857
415.845	47.07066
416.058	-62.50801
416.271	70.25899
416.483	-28.79853
416.696	9.13219
416.909	-18.26301
417.121	59.7185
417.334	-56.18797
417.547	36.53143
417.759	68.15085
417.972	0.70246
418.185	17.5623
418.397	-58.29468
418.61	9.13219
418.823	61.82655
419.035	-58.29468
419.248	38.63923
419.46	17.5623
419.673	-1.40491
419.885	78.6918
420.098	7.02472
420.311	42.8549
420.523	25.99279
420.736	74.47535
420.948	72.36716
421.161	-33.01256
421.373	-7.72688
421.586	-73.04089
421.798	30.20817
422.01	59.7185
422.223	11.23968
422.435	78.6918
422.648	47.07066
422.86	-5.61958
423.073	-37.2265
423.285	-24.5844
423.497	36.53143
423.71	-16.15583
423.922	-3.51226
424.134	38.63923
424.347	2.80986
424.559	38.63923
424.771	42.8549
424.984	-49.86771
425.196	34.42366
425.408	-45.65407
425.621	-3.51226
425.833	36.53143
426.045	-33.01256
426.257	78.6918
426.47	9.13219
426.682	28.10047
426.894	-37.2265
427.106	-16.15583
427.318	-30.90556
427.531	42.8549
427.743	13.34719
427.955	32.3159
428.167	25.99279
428.379	-66.72124
428.591	0.70246
428.804	17.5623
429.016	-49.86771
429.228	34.42366
429.44	110.318
429.652	-43.54722
429.864	30.20817
430.076	51.28651
430.288	-33.01256
430.5	4.91728
430.712	0.70246
430.924	7.02472
431.136	53.39447
431.348	51.28651
431.56	34.42366
431.772	19.66988
431.984	-26.69148
432.196	120.86117
432.408	-24.5844
432.62	32.3159
432.832	-5.61958
433.044	-28.79853
433.256	68.15085
433.468	55.50246
433.679	87.12496
433.891	44.96277
434.103	-11.94141
434.315	-9.83416
434.527	44.96277
434.739	-16.15583
434.95	-58.29468
435.162	70.25899
435.374	-47.7609
435.586	17.5623
435.798	-7.72688
436.009	-37.2265
436.221	23.88513
436.433	13.34719
436.645	-16.15583
436.856	-28.79853
437.068	23.88513
437.28	118.75249
437.491	34.42366
437.703	42.8549
437.915	21.7775
438.126	11.23968
438.338	25.99279
438.55	25.99279
438.761	-33.01256
438.973	25.99279
439.184	0.70246
439.396	19.66988
439.608	38.63923
439.819	-26.69148
440.031	63.93463
440.242	40.74705
440.454	-16.15583
440.665	59.7185
440.877	-16.15583
441.088	-64.61464
441.3	47.07066
441.511	-5.61958
441.723	13.34719
441.934	85.01664
442.146	-51.97449
442.357	80.80005
442.569	-16.15583
442.78	55.50246
442.991	23.88513
443.203	42.8549
443.414	47.07066
443.626	-37.2265
443.837	17.5623
444.048	-41.44034
444.26	13.34719
444.471	15.45473
444.682	21.7775
444.894	30.20817
445.105	17.5623
445.316	-14.04863
445.528	13.34719
445.739	-33.01256
445.95	34.42366
446.161	-43.54722
446.373	59.7185
446.584	66.04272
446.795	36.53143
447.006	28.10047
447.217	32.3159
447.429	51.28651
447.64	44.96277
447.851	61.82655
448.062	17.5623
448.273	21.7775
448.484	-56.18797
448.695	-37.2265
448.907	122.96987
449.118	-24.5844
449.329	13.34719
449.54	-28.79853
449.751	63.93463
449.962	28.10047
450.173	-7.72688
450.384	66.04272
450.595	21.7775
450.806	17.5623
451.017	76.58356
451.228	72.36716
451.439	-28.79853
451.65	9.13219
451.861	-9.83416
452.072	0.70246
452.283	-14.04863
452.494	-30.90556
452.705	13.34719
452.915	21.7775
453.126	59.7185
453.337	-18.26301
453.548	-3.51226
453.759	17.5623
453.97	9.13219
454.181	74.47535
454.391	19.66988
454.602	0.70246
454.813	30.20817
455.024	34.42366
455.235	127.18734
455.445	15.45473
455.656	38.63923
455.867	42.8549
456.078	19.66988
456.288	-16.15583
456.499	85.01664
456.71	28.10047
456.921	59.7185
457.131	-39.33343
457.342	34.42366
457.553	-33.01256
457.763	51.28651
457.974	23.88513
458.184	2.80986
458.395	36.53143
458.606	15.45473
458.816	9.13219
459.027	36.53143
459.237	25.99279
459.448	-24.5844
459.659	11.23968
459.869	-24.5844
460.08	61.82655
460.29	7.02472
460.501	-33.01256
460.711	76.58356
460.922	-5.61958
461.132	15.45473
461.343	95.55848
461.553	51.28651
461.764	51.28651
461.974	68.15085
462.184	47.07066
462.395	-24.5844
462.605	25.99279
462.816	9.13219
463.026	-7.72688
463.236	-14.04863
463.447	44.96277
463.657	-30.90556
463.867	-79.36032
464.078	63.93463
464.288	106.10089
464.498	-16.15583
464.709	-20.37016
464.919	-20.37016
465.129	-7.72688
465.339	32.3159
465.55	30.20817
465.76	61.82655
465.97	11.23968
466.18	25.99279
466.391	21.7775
466.601	80.80005
466.811	11.23968
467.021	-5.61958
467.231	-62.50801
467.441	-20.37016
467.651	-22.47729
467.862	91.34168
468.072	0.70246
468.282	28.10047
468.492	55.50246
468.702	-5.61958
468.912	2.80986
469.122	74.47535
469.332	59.7185
469.542	-7.72688
469.752	13.34719
469.962	11.23968
470.172	4.91728
470.382	9.13219
470.592	4.91728
470.802	-20.37016
471.012	61.82655
471.222	-41.44034
471.432	2.80986
471.642	13.34719
471.852	7.02472
472.062	38.63923
472.272	38.63923
472.482	17.5623
472.691	-11.94141
472.901	106.10089
473.111	-3.51226
473.321	36.53143
473.531	32.3159
473.741	-1.40491
473.95	28.10047
474.16	11.23968
474.37	28.10047
474.58	-49.86771
474.79	38.63923
474.999	68.15085
475.209	9.13219
475.419	51.28651
475.628	4.91728
475.838	57.61047
476.048	25.99279
476.258	63.93463
476.467	2.80986
476.677	-26.69148
476.886	-9.83416
477.096	9.13219
477.306	-20.37016
477.515	-16.15583
477.725	-24.5844
477.935	9.13219
478.144	-37.2265
478.354	-16.15583
478.563	11.23968
478.773	9.13219
478.982	0.70246
479.192	63.93463
479.401	-121.48383
479.611	36.53143
479.82	13.34719
480.03	-14.04863
480.239	-1.40491
480.449	38.63923
480.658	57.61047
480.868	25.99279
481.077	66.04272
481.287	-16.15583
481.496	0.70246
481.705	38.63923
481.915	30.20817
482.124	11.23968
482.333	44.96277
482.543	-66.72124
482.752	23.88513
482.961	49.17857
483.171	-33.01256
483.38	76.58356
483.589	78.6918
483.799	23.88513
484.008	-3.51226
484.217	59.7185
484.426	-39.33343
484.636	42.8549
484.845	30.20817
485.054	4.91728
485.263	11.23968
485.472	7.02472
485.682	44.96277
485.891	28.10047
486.1	76.58356
486.309	55.50246
486.518	19.66988
486.727	108.20943
486.936	-16.15583
487.146	76.58356
487.355	11.23968
487.564	34.42366
487.773	34.42366
487.982	11.23968
488.191	70.25899
488.4	78.6918
488.609	-26.69148
488.818	-14.04863
489.027	85.01664
489.236	91.34168
489.445	72.36716
489.654	25.99279
489.863	4.91728
490.072	13.34719
490.281	32.3159
490.49	32.3159
490.698	42.8549
490.907	34.42366
491.116	28.10047
491.325	25.99279
491.534	-37.2265
491.743	-16.15583
491.952	-14.04863
492.16	19.66988
492.369	-49.86771
492.578	13.34719
492.787	51.28651
492.996	103.99236
493.204	42.8549
493.413	59.7185
493.622	13.34719
493.831	0.70246
494.039	70.25899
494.248	7.02472
494.457	-9.83416
494.665	-30.90556
494.874	23.88513
495.083	101.88386
495.291	42.8549
495.5	-3.51226
495.709	4.91728
495.917	15.45473
496.126	4.91728
496.335	-24.5844
496.543	32.3159
496.752	-28.79853
496.96	78.6918
497.169	11.23968
497.377	-16.15583
497.586	59.7185
497.794	-39.33343
498.003	36.53143
498.211	17.5623
498.42	-3.51226
498.628	4.91728
498.837	28.10047
499.045	47.07066
499.254	61.82655
499.462	-7.72688
499.671	55.50246
499.879	17.5623
500.087	25.99279
500.296	42.8549
500.504	53.39447
500.713	17.5623
500.921	127.18734
501.129	74.47535
501.338	30.20817
501.546	40.74705
501.754	-28.79853
501.962	13.34719
502.171	7.02472
502.379	34.42366
502.587	17.5623
502.795	-20.37016
503.004	9.13219
503.212	127.18734
503.42	25.99279
503.628	80.80005
503.837	51.28651
504.045	0.70246
504.253	-41.44034
504.461	-22.47729
504.669	51.28651
504.877	-68.82782
505.085	-7.72688
505.294	4.91728
505.502	74.47535
505.71	44.96277
505.918	57.61047
506.126	42.8549
506.334	13.34719
506.542	11.23968
506.75	-26.69148
506.958	17.5623
507.166	28.10047
507.374	30.20817
507.582	13.34719
507.79	-60.40135
507.998	38.63923
508.206	25.99279
508.414	19.66988
508.622	4.91728
508.83	17.5623
509.037	51.28651
509.245	36.53143
509.453	0.70246
509.661	9.13219
509.869	-22.47729
510.077	28.10047
510.285	7.02472
510.492	47.07066
510.7	9.13219
510.908	57.61047
511.116	34.42366
511.324	34.42366
511.531	-62.50801
511.739	59.7185
511.947	25.99279
512.155	34.42366
512.362	-5.61958
512.57	40.74705
512.778	-30.90556
512.985	30.20817
513.193	91.34168
513.401	2.80986
513.608	-28.79853
513.816	-66.72124
514.024	42.8549
514.231	-14.04863
514.439	25.99279
514.646	66.04272
514.854	-24.5844
515.061	34.42366
515.269	-9.83416
515.477	34.42366
515.684	76.58356
515.892	-7.72688
516.099	11.23968
516.307	40.74705
516.514	72.36716
516.722	15.45473
516.929	-11.94141
517.136	44.96277
517.344	68.15085
517.551	66.04272
517.759	40.74705
517.966	0.70246
518.173	-7.72688
518.381	25.99279
518.588	-7.72688
518.796	87.12496
519.003	0.70246
519.21	-1.40491
519.418	-11.94141
519.625	23.88513
519.832	-28.79853
520.039	-1.40491
520.247	-24.5844
520.454	59.7185
520.661	11.23968
520.868	28.10047
521.076	76.58356
521.283	17.5623
521.49	-7.72688
521.697	59.7185
521.904	-3.51226
522.112	-20.37016
522.319	-41.44034
522.526	19.66988
522.733	49.17857
522.94	9.13219
523.147	-14.04863
523.354	21.7775
523.561	13.34719
523.768	-22.47729
523.975	34.42366
524.183	-5.61958
524.39	-5.61958
524.597	55.50246
524.804	59.7185
525.011	38.63923
525.218	21.7775
525.425	2.80986
525.632	42.8549
525.838	53.39447
526.045	-1.40491
526.252	-43.54722
526.459	30.20817
526.666	51.28651
526.873	61.82655
527.08	110.318
527.287	44.96277
527.494	0.70246
527.701	19.66988
527.907	17.5623
528.114	68.15085
528.321	-45.65407
528.528	-33.01256
528.735	36.53143
528.941	-49.86771
529.148	15.45473
529.355	-3.51226
529.562	-24.5844
529.768	21.7775
529.975	51.28651
530.182	55.50246
530.388	59.7185
530.595	53.39447
530.802	42.8549
531.008	-22.47729
531.215	15.45473
531.422	42.8549
531.628	-24.5844
531.835	-5.61958
532.042	47.07066
532.248	80.80005
532.455	59.7185
532.661	44.96277
532.868	19.66988
533.074	21.7775
533.281	47.07066
533.487	0.70246
533.694	-24.5844
533.9	38.63923
534.107	28.10047
534.313	32.3159
534.52	152.49392
534.726	-14.04863
534.933	11.23968
535.139	42.8549
535.345	13.34719
535.552	38.63923
535.758	-66.72124
535.965	-18.26301
536.171	-14.04863
536.377	0.70246
536.584	21.7775
536.79	19.66988
536.996	44.96277
537.203	97.66692
537.409	0.70246
537.615	-58.29468
537.821	13.34719
538.028	40.74705
538.234	44.96277
538.44	9.13219
538.646	51.28651
538.853	-75.1474
539.059	85.01664
539.265	-16.15583
539.471	163.03922
539.677	13.34719
539.883	28.10047
540.09	4.91728
540.296	-49.86771
540.502	0.70246
540.708	-9.83416
540.914	38.63923
541.12	44.96277
541.326	137.73137
541.532	118.75249
541.738	13.34719
541.944	68.15085
542.15	-3.51226
542.356	17.5623
542.562	-16.15583
542.768	-7.72688
542.974	7.02472
543.18	-7.72688
543.386	89.23331
543.592	21.7775
543.798	30.20817
544.004	59.7185
544.21	42.8549
544.415	28.10047
544.621	30.20817
544.827	-7.72688
545.033	38.63923
545.239	72.36716
545.445	17.5623
545.651	49.17857
545.856	-7.72688
546.062	38.63923
546.268	11.23968
546.474	36.53143
546.679	19.66988
546.885	30.20817
547.091	47.07066
547.297	55.50246
547.502	4.91728
547.708	38.63923
547.914	87.12496
548.119	68.15085
548.325	0.70246
548.531	30.20817
548.736	38.63923
548.942	68.15085
549.147	9.13219
549.353	28.10047
549.559	53.39447
549.764	-3.51226
549.97	11.23968
550.175	34.42366
550.381	44.96277
550.586	-20.37016
550.792	15.45473
550.997	167.25749
551.203	36.53143
551.408	55.50246
551.614	55.50246
551.819	63.93463
552.025	63.93463
552.23	28.10047
552.435	-33.01256
552.641	-16.15583
552.846	66.04272
553.052	13.34719
553.257	28.10047
553.462	38.63923
553.668	53.39447
553.873	30.20817
554.078	-20.37016
554.283	42.8549
554.489	30.20817
554.694	63.93463
554.899	28.10047
555.105	42.8549
555.31	51.28651
555.515	30.20817
555.72	-51.97449
555.925	21.7775
556.131	17.5623
556.336	7.02472
556.541	28.10047
556.746	53.39447
556.951	125.07859
557.156	19.66988
557.361	118.75249
557.567	89.23331
557.772	30.20817
557.977	-35.11954
558.182	76.58356
558.387	42.8549
558.592	-5.61958
558.797	23.88513
559.002	32.3159
559.207	63.93463
559.412	-56.18797
559.617	59.7185
559.822	7.02472
560.027	-33.01256
560.232	9.13219
560.437	95.55848
560.642	-33.01256
560.847	93.45007
561.051	13.34719
561.256	51.28651
561.461	55.50246
561.666	-24.5844
561.871	93.45007
562.076	47.07066
562.281	-45.65407
562.485	68.15085
562.69	57.61047
562.895	-62.50801
563.1	17.5623
563.305	34.42366
563.509	78.6918
563.714	30.20817
563.919	112.42659
564.123	15.45473
564.328	61.82655
564.533	66.04272
564.737	-5.61958
564.942	80.80005
565.147	42.8549
565.351	11.23968
565.556	34.42366
565.761	74.47535
565.965	21.7775
566.17	76.58356
566.374	13.34719
566.579	-33.01256
566.784	82.90833
566.988	40.74705
567.193	21.7775
567.397	34.42366
567.602	42.8549
567.806	57.61047
568.011	-83.57314
568.215	76.58356
568.42	-43.54722
568.624	-49.86771
568.828	53.39447
569.033	17.5623
569.237	106.10089
569.442	76.58356
569.646	127.18734
569.85	15.45473
570.055	51.28651
570.259	-14.04863
570.463	32.3159
570.668	38.63923
570.872	-33.01256
571.076	-3.51226
571.281	-16.15583
571.485	25.99279
571.689	93.45007
571.893	68.15085
572.098	34.42366
572.302	42.8549
572.506	38.63923
572.71	28.10047
572.914	51.28651
573.119	53.39447
573.323	93.45007
573.527	116.64384
573.731	47.07066
573.935	21.7775
574.139	32.3159
574.343	68.15085
574.547	47.07066
574.751	30.20817
574.955	-39.33343
575.159	55.50246
575.364	-5.61958
575.568	99.77538
575.772	36.53143
575.976	74.47535
576.18	-33.01256
576.383	19.66988
576.587	17.5623
576.791	34.42366
576.995	0.70246
577.199	32.3159
577.403	-30.90556
577.607	63.93463
577.811	44.96277
578.015	72.36716
578.219	80.80005
578.422	28.10047
578.626	25.99279
578.83	-16.15583
579.034	89.23331
579.238	116.64384
579.442	34.42366
579.645	36.53143
579.849	93.45007
580.053	44.96277
580.257	59.7185
580.46	80.80005
580.664	11.23968
580.868	51.28651
581.071	25.99279
581.275	51.28651
581.479	38.63923
581.682	85.01664
581.886	72.36716
582.09	44.96277
582.293	63.93463
582.497	55.50246
582.7	85.01664
582.904	36.53143
583.107	34.42366
583.311	47.07066
583.515	17.5623
583.718	28.10047
583.922	0.70246
584.125	63.93463
584.329	82.90833
584.532	59.7185
584.735	93.45007
584.939	74.47535
585.142	30.20817
585.346	-5.61958
585.549	32.3159
585.753	42.8549
585.956	49.17857
586.159	95.55848
586.363	15.45473
586.566	-5.61958
586.769	9.13219
586.973	59.7185
587.176	112.42659
587.379	0.70246
587.582	21.7775
587.786	30.20817
587.989	42.8549
588.192	30.20817
588.395	61.82655
588.599	63.93463
588.802	70.25899
589.005	17.5623
