Data from Scatter_Coeff_Baseline_USB4F045381__18__0018.txt Node

Date: Thu Feb 13 19:19:06 EST 2025
User: mmckonesweet
Spectrometer: USB4F04538
Trigger mode: 4
Integration Time (sec): 2.400000E-3
Scans to average: 1
Electric dark correction enabled: true
Nonlinearity correction enabled: true
Boxcar width: 0
XAxis mode: Wavelengths
Number of Pixels in Spectrum: 3648
>>>>>Begin Spectral Data<<<<<
345.52	44.4358
345.736	44.4358
345.952	44.4358
346.168	-37.75323
346.384	-75.67402
346.6	50.75953
346.816	33.89672
347.032	-41.96706
347.248	-20.89695
347.464	-25.11117
347.68	25.46587
347.896	4.39042
348.112	-6.14641
348.328	-58.82135
348.544	44.4358
348.76	-16.68263
348.975	10.7128
349.191	0.17561
349.407	8.60532
349.623	-54.60793
349.839	-37.75323
350.055	-29.32529
350.27	50.75953
350.486	-46.18078
350.702	25.46587
350.918	0.17561
351.133	-37.75323
351.349	17.0354
351.565	36.00449
351.781	46.54368
351.996	12.82031
352.212	44.4358
352.428	2.283
352.644	-37.75323
352.859	12.82031
353.075	50.75953
353.291	-44.07393
353.506	50.75953
353.722	-16.68263
353.938	33.89672
354.153	33.89672
354.369	-12.46822
354.584	19.14299
354.8	-16.68263
355.016	38.11228
355.231	19.14299
355.447	29.68125
355.662	-31.43231
355.878	17.0354
356.093	8.60532
356.309	-1.93175
356.524	40.22009
356.74	-12.46822
356.955	-18.7898
357.171	8.60532
357.386	-8.2537
357.602	76.05651
357.817	-25.11117
358.033	105.57375
358.248	-20.89695
358.464	-25.11117
358.679	-18.7898
358.895	-58.82135
359.11	-20.89695
359.325	40.22009
359.541	4.39042
359.756	42.32793
359.972	-48.28761
360.187	27.57355
360.402	17.0354
360.618	-29.32529
360.833	12.82031
361.048	-8.2537
361.264	42.32793
361.479	-69.35446
361.694	27.57355
361.909	19.14299
362.125	-48.28761
362.34	46.54368
362.555	-31.43231
362.77	0.17561
362.986	0.17561
363.201	46.54368
363.416	-48.28761
363.631	-33.53931
363.847	27.57355
364.062	14.92785
364.277	-4.03909
364.492	-6.14641
364.707	8.60532
364.922	-29.32529
365.138	4.39042
365.353	4.39042
365.568	6.49786
365.783	-23.00407
365.998	-37.75323
366.213	-16.68263
366.428	-39.86016
366.643	-4.03909
366.858	-52.50118
367.073	17.0354
367.288	-8.2537
367.503	65.5157
367.718	25.46587
367.933	-4.03909
368.148	-56.71465
368.363	-31.43231
368.578	-29.32529
368.793	8.60532
369.008	25.46587
369.223	19.14299
369.438	21.25059
369.653	2.283
369.868	-73.56752
370.083	-37.75323
370.298	17.0354
370.513	-39.86016
370.728	-23.00407
370.943	8.60532
371.157	8.60532
371.372	-6.14641
371.587	-27.21824
371.802	-16.68263
372.017	31.78897
372.232	42.32793
372.446	-8.2537
372.661	-98.84375
372.876	17.0354
373.091	-16.68263
373.306	-25.11117
373.52	-39.86016
373.735	48.65159
373.95	-50.3944
374.165	50.75953
374.379	44.4358
374.594	29.68125
374.809	27.57355
375.023	-18.7898
375.238	-8.2537
375.453	-33.53931
375.667	46.54368
375.882	10.7128
376.097	71.84011
376.311	-86.2061
376.526	-1.93175
376.741	31.78897
376.955	42.32793
377.17	12.82031
377.384	-20.89695
377.599	33.89672
377.813	-23.00407
378.028	59.19149
378.242	59.19149
378.457	-16.68263
378.672	-48.28761
378.886	27.57355
379.101	40.22009
379.315	12.82031
379.53	6.49786
379.744	-75.67402
379.958	-50.3944
380.173	-29.32529
380.387	-48.28761
380.602	67.62381
380.816	-14.57544
381.031	-37.75323
381.245	21.25059
381.459	-50.3944
381.674	-23.00407
381.888	10.7128
382.103	21.25059
382.317	8.60532
382.531	8.60532
382.746	-14.57544
382.96	92.92297
383.174	23.35822
383.388	19.14299
383.603	-25.11117
383.817	36.00449
384.031	-39.86016
384.246	33.89672
384.46	-33.53931
384.674	0.17561
384.888	54.97546
385.103	90.81458
385.317	-12.46822
385.531	73.9483
385.745	-103.05609
385.959	-14.57544
386.174	54.97546
386.388	80.27299
386.602	-145.17365
386.816	-31.43231
387.03	48.65159
387.244	36.00449
387.458	14.92785
387.672	4.39042
387.887	46.54368
388.101	46.54368
388.315	-14.57544
388.529	-14.57544
388.743	14.92785
388.957	-14.57544
389.171	48.65159
389.385	44.4358
389.599	17.0354
389.813	-23.00407
390.027	33.89672
390.241	17.0354
390.455	25.46587
390.669	31.78897
390.883	-16.68263
391.097	46.54368
391.311	27.57355
391.525	25.46587
391.738	-14.57544
391.952	65.5157
392.166	-67.24789
392.38	21.25059
392.594	-4.03909
392.808	21.25059
393.022	63.4076
393.236	-6.14641
393.449	-27.21824
393.663	25.46587
393.877	-8.2537
394.091	2.283
394.305	76.05651
394.518	-4.03909
394.732	-81.99334
394.946	33.89672
395.16	42.32793
395.373	-31.43231
395.587	71.84011
395.801	-25.11117
396.015	42.32793
396.228	57.08346
396.442	-14.57544
396.656	36.00449
396.869	-8.2537
397.083	19.14299
397.297	-12.46822
397.51	-29.32529
397.724	-48.28761
397.938	2.283
398.151	-18.7898
398.365	17.0354
398.578	31.78897
398.792	-25.11117
399.005	4.39042
399.219	-39.86016
399.433	-4.03909
399.646	4.39042
399.86	-35.64629
400.073	4.39042
400.287	12.82031
400.5	-65.14129
400.714	-65.14129
400.927	-12.46822
401.141	-58.82135
401.354	-16.68263
401.567	21.25059
401.781	8.60532
401.994	-44.07393
402.208	44.4358
402.421	-44.07393
402.635	54.97546
402.848	-39.86016
403.061	8.60532
403.275	0.17561
403.488	10.7128
403.701	17.0354
403.915	-16.68263
404.128	0.17561
404.341	71.84011
404.555	-8.2537
404.768	-12.46822
404.981	25.46587
405.195	17.0354
405.408	-23.00407
405.621	-54.60793
405.834	-10.36097
406.048	38.11228
406.261	-4.03909
406.474	12.82031
406.687	-44.07393
406.9	8.60532
407.114	-25.11117
407.327	-37.75323
407.54	-20.89695
407.753	40.22009
407.966	61.29953
408.179	0.17561
408.392	63.4076
408.605	92.92297
408.819	-50.3944
409.032	-1.93175
409.245	-20.89695
409.458	4.39042
409.671	0.17561
409.884	10.7128
410.097	107.68229
410.31	0.17561
410.523	-16.68263
410.736	-48.28761
410.949	42.32793
411.162	4.39042
411.375	33.89672
411.588	17.0354
411.801	29.68125
412.014	-8.2537
412.227	-33.53931
412.44	-1.93175
412.653	6.49786
412.865	-14.57544
413.078	-1.93175
413.291	27.57355
413.504	8.60532
413.717	36.00449
413.93	-29.32529
414.143	-14.57544
414.356	-4.03909
414.568	-60.92802
414.781	-18.7898
414.994	-75.67402
415.207	-18.7898
415.42	27.57355
415.632	-33.53931
415.845	-6.14641
416.058	12.82031
416.271	-18.7898
416.483	23.35822
416.696	31.78897
416.909	-44.07393
417.121	2.283
417.334	38.11228
417.547	19.14299
417.759	59.19149
417.972	-58.82135
418.185	-37.75323
418.397	50.75953
418.61	-67.24789
418.823	6.49786
419.035	8.60532
419.248	4.39042
419.46	-37.75323
419.673	-52.50118
419.885	-44.07393
420.098	-12.46822
420.311	-46.18078
420.523	-10.36097
420.736	-37.75323
420.948	42.32793
421.161	-23.00407
421.373	10.7128
421.586	-27.21824
421.798	-6.14641
422.01	2.283
422.223	-25.11117
422.435	-12.46822
422.648	-29.32529
422.86	8.60532
423.073	-8.2537
423.285	6.49786
423.497	-50.3944
423.71	42.32793
423.922	-8.2537
424.134	42.32793
424.347	-50.3944
424.559	-94.6313
424.771	-1.93175
424.984	8.60532
425.196	25.46587
425.408	25.46587
425.621	-56.71465
425.833	-16.68263
426.045	38.11228
426.257	0.17561
426.47	0.17561
426.682	14.92785
426.894	-37.75323
427.106	-8.2537
427.318	-33.53931
427.531	6.49786
427.743	-8.2537
427.955	40.22009
428.167	-29.32529
428.379	0.17561
428.591	-35.64629
428.804	-20.89695
429.016	-48.28761
429.228	-37.75323
429.44	12.82031
429.652	-46.18078
429.864	69.73195
430.076	19.14299
430.288	-81.99334
430.5	40.22009
430.712	10.7128
430.924	-10.36097
431.136	8.60532
431.348	8.60532
431.56	59.19149
431.772	-14.57544
431.984	-50.3944
432.196	12.82031
432.408	0.17561
432.62	-12.46822
432.832	-46.18078
433.044	19.14299
433.256	8.60532
433.468	19.14299
433.679	4.39042
433.891	4.39042
434.103	17.0354
434.315	-77.78048
434.527	69.73195
434.739	40.22009
434.95	10.7128
435.162	-16.68263
435.374	25.46587
435.586	-29.32529
435.798	8.60532
436.009	-8.2537
436.221	14.92785
436.433	-29.32529
436.645	42.32793
436.856	-50.3944
437.068	8.60532
437.28	-41.96706
437.491	46.54368
437.703	-14.57544
437.915	-39.86016
438.126	14.92785
438.338	-16.68263
438.55	38.11228
438.761	-8.2537
438.973	-75.67402
439.184	-33.53931
439.396	0.17561
439.608	-12.46822
439.819	-37.75323
440.031	-69.35446
440.242	14.92785
440.454	-4.03909
440.665	-31.43231
440.877	27.57355
441.088	-18.7898
441.3	-6.14641
441.511	-14.57544
441.723	42.32793
441.934	33.89672
442.146	84.48956
442.357	21.25059
442.569	29.68125
442.78	-67.24789
442.991	2.283
443.203	52.86748
443.414	12.82031
443.626	-18.7898
443.837	-16.68263
444.048	42.32793
444.26	10.7128
444.471	-37.75323
444.682	36.00449
444.894	-4.03909
445.105	-25.11117
445.316	36.00449
445.528	-16.68263
445.739	-6.14641
445.95	27.57355
446.161	-41.96706
446.373	10.7128
446.584	-18.7898
446.795	27.57355
447.006	19.14299
447.217	-65.14129
447.429	-12.46822
447.64	38.11228
447.851	0.17561
448.062	0.17561
448.273	38.11228
448.484	44.4358
448.695	-10.36097
448.907	73.9483
449.118	17.0354
449.329	48.65159
449.54	-18.7898
449.751	36.00449
449.962	-16.68263
450.173	-10.36097
450.384	17.0354
450.595	0.17561
450.806	-37.75323
451.017	84.48956
451.228	122.44269
451.439	25.46587
451.65	4.39042
451.861	-6.14641
452.072	42.32793
452.283	44.4358
452.494	-31.43231
452.705	78.16474
452.915	2.283
453.126	25.46587
453.337	0.17561
453.548	-8.2537
453.759	-18.7898
453.97	14.92785
454.181	6.49786
454.391	42.32793
454.602	-31.43231
454.813	4.39042
455.024	65.5157
455.235	4.39042
455.445	25.46587
455.656	12.82031
455.867	-48.28761
456.078	-44.07393
456.288	40.22009
456.499	-65.14129
456.71	-20.89695
456.921	36.00449
457.131	-33.53931
457.342	92.92297
457.553	-29.32529
457.763	-6.14641
457.974	33.89672
458.184	-48.28761
458.395	-41.96706
458.606	6.49786
458.816	8.60532
459.027	-75.67402
459.237	-41.96706
459.448	-58.82135
459.659	10.7128
459.869	-6.14641
460.08	-25.11117
460.29	-41.96706
460.501	-16.68263
460.711	0.17561
460.922	-63.03467
461.132	2.283
461.343	44.4358
461.553	23.35822
461.764	-4.03909
461.974	-4.03909
462.184	-58.82135
462.395	67.62381
462.605	2.283
462.816	-4.03909
463.026	19.14299
463.236	76.05651
463.447	36.00449
463.657	-29.32529
463.867	-25.11117
464.078	6.49786
464.288	0.17561
464.498	-8.2537
464.709	8.60532
464.919	2.283
465.129	-12.46822
465.339	52.86748
465.55	42.32793
465.76	29.68125
465.97	-6.14641
466.18	-29.32529
466.391	-4.03909
466.601	54.97546
466.811	0.17561
467.021	8.60532
467.231	-29.32529
467.441	12.82031
467.651	40.22009
467.862	21.25059
468.072	31.78897
468.282	38.11228
468.492	19.14299
468.702	57.08346
468.912	38.11228
469.122	8.60532
469.332	46.54368
469.542	14.92785
469.752	2.283
469.962	33.89672
470.172	2.283
470.382	-12.46822
470.592	-8.2537
470.802	17.0354
471.012	-12.46822
471.222	48.65159
471.432	-4.03909
471.642	76.05651
471.852	-41.96706
472.062	-50.3944
472.272	-12.46822
472.482	17.0354
472.691	-12.46822
472.901	8.60532
473.111	-56.71465
473.321	40.22009
473.531	67.62381
473.741	23.35822
473.95	29.68125
474.16	-81.99334
474.37	-71.461
474.58	50.75953
474.79	23.35822
474.999	-10.36097
475.209	17.0354
475.419	33.89672
475.628	23.35822
475.838	40.22009
476.048	33.89672
476.258	-16.68263
476.467	76.05651
476.677	80.27299
476.886	-14.57544
477.096	95.03138
477.306	-1.93175
477.515	17.0354
477.725	-56.71465
477.935	-52.50118
478.144	-37.75323
478.354	21.25059
478.563	0.17561
478.773	17.0354
478.982	-25.11117
479.192	36.00449
479.401	-14.57544
479.611	-4.03909
479.82	36.00449
480.03	-4.03909
480.239	33.89672
480.449	25.46587
480.658	-16.68263
480.868	-31.43231
481.077	46.54368
481.287	48.65159
481.496	84.48956
481.705	-39.86016
481.915	-23.00407
482.124	76.05651
482.333	-10.36097
482.543	-14.57544
482.752	-16.68263
482.961	50.75953
483.171	63.4076
483.38	-23.00407
483.589	19.14299
483.799	-8.2537
484.008	17.0354
484.217	29.68125
484.426	0.17561
484.636	4.39042
484.845	4.39042
485.054	52.86748
485.263	-12.46822
485.472	0.17561
485.682	27.57355
485.891	-48.28761
486.1	4.39042
486.309	29.68125
486.518	-96.73754
486.727	44.4358
486.936	50.75953
487.146	-12.46822
487.355	23.35822
487.564	-41.96706
487.773	0.17561
487.982	0.17561
488.191	48.65159
488.4	0.17561
488.609	27.57355
488.818	17.0354
489.027	-25.11117
489.236	52.86748
489.445	82.38126
489.654	12.82031
489.863	71.84011
490.072	-50.3944
490.281	8.60532
490.49	12.82031
490.698	63.4076
490.907	-8.2537
491.116	21.25059
491.325	-25.11117
491.534	4.39042
491.743	23.35822
491.952	-88.31244
492.16	25.46587
492.369	4.39042
492.578	42.32793
492.787	-31.43231
492.996	10.7128
493.204	2.283
493.413	-77.78048
493.622	-12.46822
493.831	71.84011
494.039	59.19149
494.248	-52.50118
494.457	-58.82135
494.665	-8.2537
494.874	25.46587
495.083	17.0354
495.291	44.4358
495.5	-8.2537
495.709	29.68125
495.917	-67.24789
496.126	-75.67402
496.335	21.25059
496.543	59.19149
496.752	-25.11117
496.96	69.73195
497.169	-16.68263
497.377	-29.32529
497.586	27.57355
497.794	31.78897
498.003	-50.3944
498.211	-48.28761
498.42	8.60532
498.628	50.75953
498.837	44.4358
499.045	4.39042
499.254	54.97546
499.462	-16.68263
499.671	33.89672
499.879	46.54368
500.087	17.0354
500.296	6.49786
500.504	25.46587
500.713	-67.24789
500.921	-31.43231
501.129	-37.75323
501.338	42.32793
501.546	-27.21824
501.754	-75.67402
501.962	50.75953
502.171	40.22009
502.379	-44.07393
502.587	-29.32529
502.795	48.65159
503.004	97.13981
503.212	8.60532
503.42	14.92785
503.628	12.82031
503.837	0.17561
504.045	-18.7898
504.253	-12.46822
504.461	-56.71465
504.669	-46.18078
504.877	50.75953
505.085	46.54368
505.294	29.68125
505.502	-4.03909
505.71	2.283
505.918	42.32793
506.126	-41.96706
506.334	-8.2537
506.542	14.92785
506.75	78.16474
506.958	42.32793
507.166	-14.57544
507.374	21.25059
507.582	-63.03467
507.79	-1.93175
507.998	-6.14641
508.206	-33.53931
508.414	-14.57544
508.622	38.11228
508.83	-65.14129
509.037	-37.75323
509.245	12.82031
509.453	-12.46822
509.661	-25.11117
509.869	-52.50118
510.077	8.60532
510.285	-25.11117
510.492	-6.14641
510.7	-18.7898
510.908	46.54368
511.116	25.46587
511.324	-12.46822
511.531	21.25059
511.739	-41.96706
511.947	-39.86016
512.155	38.11228
512.362	-75.67402
512.57	0.17561
512.778	-12.46822
512.985	-84.09974
513.193	-25.11117
513.401	-29.32529
513.608	38.11228
513.816	29.68125
514.024	29.68125
514.231	48.65159
514.439	-25.11117
514.646	25.46587
514.854	36.00449
515.061	-33.53931
515.269	0.17561
515.477	25.46587
515.684	21.25059
515.892	-54.60793
516.099	4.39042
516.307	-33.53931
516.514	59.19149
516.722	44.4358
516.929	29.68125
517.136	-4.03909
517.344	33.89672
517.551	0.17561
517.759	-63.03467
517.966	54.97546
518.173	38.11228
518.381	0.17561
518.588	114.00805
518.796	12.82031
519.003	38.11228
519.21	46.54368
519.418	-29.32529
519.625	2.283
519.832	61.29953
520.039	2.283
520.247	-81.99334
520.454	38.11228
520.661	0.17561
520.868	-6.14641
521.076	-12.46822
521.283	-37.75323
521.49	29.68125
521.697	17.0354
521.904	-67.24789
522.112	36.00449
522.319	25.46587
522.526	90.81458
522.733	-98.84375
522.94	17.0354
523.147	-35.64629
523.354	25.46587
523.561	-1.93175
523.768	-23.00407
523.975	17.0354
524.183	-6.14641
524.39	-1.93175
524.597	-56.71465
524.804	-14.57544
525.011	-4.03909
525.218	-20.89695
525.425	-41.96706
525.632	0.17561
525.838	-16.68263
526.045	-18.7898
526.252	8.60532
526.459	-16.68263
526.666	42.32793
526.873	17.0354
527.08	88.70622
527.287	0.17561
527.494	17.0354
527.701	-41.96706
527.907	-4.03909
528.114	17.0354
528.321	2.283
528.528	-37.75323
528.735	-20.89695
528.941	-54.60793
529.148	8.60532
529.355	-20.89695
529.562	25.46587
529.768	-29.32529
529.975	73.9483
530.182	-48.28761
530.388	29.68125
530.595	10.7128
530.802	0.17561
531.008	-27.21824
531.215	-8.2537
531.422	-20.89695
531.628	-27.21824
531.835	-16.68263
532.042	50.75953
532.248	-18.7898
532.455	-1.93175
532.661	-20.89695
532.868	14.92785
533.074	4.39042
533.281	25.46587
533.487	-8.2537
533.694	50.75953
533.9	-48.28761
534.107	12.82031
534.313	86.59788
534.52	-4.03909
534.726	-16.68263
534.933	-37.75323
535.139	2.283
535.345	-12.46822
535.552	17.0354
535.758	-16.68263
535.965	-4.03909
536.171	-33.53931
536.377	-41.96706
536.584	12.82031
536.79	-73.56752
536.996	-10.36097
537.203	-73.56752
537.409	2.283
537.615	95.03138
537.821	-18.7898
538.028	-12.46822
538.234	46.54368
538.44	-27.21824
538.646	-44.07393
538.853	-8.2537
539.059	33.89672
539.265	0.17561
539.471	25.46587
539.677	50.75953
539.883	-14.57544
540.09	17.0354
540.296	-10.36097
540.502	-63.03467
540.708	38.11228
540.914	33.89672
541.12	42.32793
541.326	-23.00407
541.532	36.00449
541.738	-44.07393
541.944	8.60532
542.15	-20.89695
542.356	33.89672
542.562	-8.2537
542.768	10.7128
542.974	-25.11117
543.18	-25.11117
543.386	-31.43231
543.592	2.283
543.798	-25.11117
544.004	-37.75323
544.21	-41.96706
544.415	33.89672
544.621	-12.46822
544.827	0.17561
545.033	-23.00407
545.239	-37.75323
545.445	38.11228
545.651	27.57355
545.856	-39.86016
546.062	-25.11117
546.268	-25.11117
546.474	21.25059
546.679	-56.71465
546.885	-27.21824
547.091	10.7128
547.297	-65.14129
547.502	44.4358
547.708	-67.24789
547.914	-4.03909
548.119	63.4076
548.325	-46.18078
548.531	78.16474
548.736	-58.82135
548.942	2.283
549.147	8.60532
549.353	0.17561
549.559	-63.03467
549.764	25.46587
549.97	-6.14641
550.175	-33.53931
550.381	23.35822
550.586	21.25059
550.792	29.68125
550.997	42.32793
551.203	-23.00407
551.408	12.82031
551.614	-12.46822
551.819	19.14299
552.025	-50.3944
552.23	17.0354
552.435	-20.89695
552.641	-25.11117
552.846	23.35822
553.052	82.38126
553.257	-33.53931
553.462	-46.18078
553.668	-48.28761
553.873	88.70622
554.078	-56.71465
554.283	38.11228
554.489	88.70622
554.694	-81.99334
554.899	12.82031
555.105	-46.18078
555.31	-23.00407
555.515	8.60532
555.72	-50.3944
555.925	27.57355
556.131	-81.99334
556.336	17.0354
556.541	27.57355
556.746	84.48956
556.951	12.82031
557.156	-50.3944
557.361	8.60532
557.567	103.46523
557.772	17.0354
557.977	8.60532
558.182	2.283
558.387	-18.7898
558.592	-96.73754
558.797	14.92785
559.002	48.65159
559.207	-54.60793
559.412	-18.7898
559.617	12.82031
559.822	-41.96706
560.027	-60.92802
560.232	2.283
560.437	0.17561
560.642	-8.2537
560.847	33.89672
561.051	50.75953
561.256	-4.03909
561.461	2.283
561.666	-48.28761
561.871	29.68125
562.076	8.60532
562.281	-48.28761
562.485	33.89672
562.69	6.49786
562.895	-1.93175
563.1	-29.32529
563.305	36.00449
563.509	-33.53931
563.714	-10.36097
563.919	-1.93175
564.123	-23.00407
564.328	46.54368
564.533	14.92785
564.737	-8.2537
564.942	10.7128
565.147	27.57355
565.351	-14.57544
565.556	21.25059
565.761	0.17561
565.965	88.70622
566.17	-6.14641
566.374	-39.86016
566.579	25.46587
566.784	-29.32529
566.988	-52.50118
567.193	-27.21824
567.397	-39.86016
567.602	8.60532
567.806	-25.11117
568.011	0.17561
568.215	27.57355
568.42	-52.50118
568.624	54.97546
568.828	8.60532
569.033	-27.21824
569.237	-33.53931
569.442	-33.53931
569.646	31.78897
569.85	29.68125
570.055	-1.93175
570.259	-71.461
570.463	8.60532
570.668	25.46587
570.872	-6.14641
571.076	44.4358
571.281	-50.3944
571.485	12.82031
571.689	21.25059
571.893	48.65159
572.098	4.39042
572.302	-8.2537
572.506	36.00449
572.71	-33.53931
572.914	-23.00407
573.119	-12.46822
573.323	-16.68263
573.527	57.08346
573.731	6.49786
573.935	-41.96706
574.139	-12.46822
574.343	29.68125
574.547	36.00449
574.751	-44.07393
574.955	-18.7898
575.159	-63.03467
575.364	-12.46822
575.568	-1.93175
575.772	-6.14641
575.976	27.57355
576.18	-41.96706
576.383	48.65159
576.587	8.60532
576.791	-23.00407
576.995	-4.03909
577.199	-1.93175
577.403	-29.32529
577.607	33.89672
577.811	63.4076
578.015	46.54368
578.219	14.92785
578.422	-67.24789
578.626	0.17561
578.83	21.25059
579.034	-27.21824
579.238	-16.68263
579.442	-29.32529
579.645	-50.3944
579.849	33.89672
580.053	-16.68263
580.257	-37.75323
580.46	-10.36097
580.664	0.17561
580.868	33.89672
581.071	33.89672
581.275	-23.00407
581.479	-14.57544
581.682	-12.46822
581.886	-8.2537
582.09	-63.03467
582.293	-20.89695
582.497	-63.03467
582.7	-81.99334
582.904	-1.93175
583.107	-29.32529
583.311	-23.00407
583.515	-18.7898
583.718	14.92785
583.922	-54.60793
584.125	8.60532
584.329	59.19149
584.532	57.08346
584.735	-37.75323
584.939	17.0354
585.142	52.86748
585.346	-46.18078
585.549	6.49786
585.753	80.27299
585.956	29.68125
586.159	92.92297
586.363	-124.1162
586.566	14.92785
586.769	0.17561
586.973	-90.41875
587.176	-6.14641
587.379	42.32793
587.582	38.11228
