Data from Scatter_Coeff_Baseline_USB4F045381__26__0026.txt Node

Date: Thu Feb 13 19:21:23 EST 2025
User: mmckonesweet
Spectrometer: USB4F04538
Trigger mode: 4
Integration Time (sec): 2.400000E-3
Scans to average: 1
Electric dark correction enabled: true
Nonlinearity correction enabled: true
Boxcar width: 0
XAxis mode: Wavelengths
Number of Pixels in Spectrum: 3648
>>>>>Begin Spectral Data<<<<<
345.52	41.97663
345.736	41.97663
345.952	41.97663
346.168	6.14661
346.384	39.86879
346.6	-59.17246
346.816	-42.31821
347.032	-8.60492
347.248	39.86879
347.464	33.54542
347.68	10.36155
347.896	10.36155
348.112	-10.71218
348.328	14.57659
348.544	1.93177
348.76	-21.24814
348.975	31.43768
349.191	14.57659
349.407	35.65319
349.623	8.25407
349.839	-2.28298
350.055	31.43768
350.27	48.30027
350.486	44.08449
350.702	37.76098
350.918	-10.71218
351.133	-14.92664
351.349	29.32996
351.565	-69.70555
351.781	-23.35526
351.996	23.00695
352.212	-12.81942
352.428	48.30027
352.644	-27.56942
352.859	23.00695
353.075	-65.49239
353.291	-73.91861
353.506	-80.238
353.722	-33.89048
353.938	-69.70555
354.153	-48.63874
354.369	-19.141
354.584	46.19237
354.8	96.7884
355.016	16.68414
355.231	6.14661
355.447	-21.24814
355.662	-0.17561
355.878	-6.49763
356.093	20.89932
356.309	10.36155
356.524	-19.141
356.74	-42.31821
356.955	31.43768
357.171	-48.63874
357.386	-67.59898
357.602	-23.35526
357.817	-17.03383
358.033	31.43768
358.248	1.93177
358.464	27.22227
358.679	14.57659
358.895	-4.39031
359.11	52.51615
359.325	-67.59898
359.541	52.51615
359.756	-27.56942
359.972	41.97663
360.187	-4.39031
360.402	-86.55716
360.618	25.11459
360.833	-21.24814
361.048	-2.28298
361.264	-10.71218
361.479	-21.24814
361.694	16.68414
361.909	35.65319
362.125	-2.28298
362.34	-2.28298
362.555	-0.17561
362.77	-27.56942
362.986	52.51615
363.201	-27.56942
363.416	-44.42508
363.631	1.93177
363.847	84.13817
364.062	-35.99745
364.277	-0.17561
364.492	8.25407
364.707	-29.67646
364.922	-44.42508
365.138	41.97663
365.353	46.19237
365.568	10.36155
365.783	37.76098
365.998	-19.141
366.213	107.33087
366.428	1.93177
366.643	46.19237
366.858	44.08449
367.073	56.73213
367.288	-50.74553
367.503	-12.81942
367.718	-27.56942
367.933	4.03918
368.148	-25.46235
368.363	35.65319
368.578	48.30027
368.793	65.16435
369.008	16.68414
369.223	1.93177
369.438	-0.17561
369.653	8.25407
369.868	23.00695
370.083	23.00695
370.298	-6.49763
370.513	35.65319
370.728	-69.70555
370.943	8.25407
371.157	-42.31821
371.372	-25.46235
371.587	56.73213
371.802	67.27246
372.017	35.65319
372.232	-44.42508
372.446	65.16435
372.661	-73.91861
372.876	-10.71218
373.091	1.93177
373.306	27.22227
373.52	-27.56942
373.735	4.03918
373.95	14.57659
374.165	-6.49763
374.379	-6.49763
374.594	-19.141
374.809	-29.67646
375.023	-17.03383
375.238	31.43768
375.453	-14.92664
375.667	18.79172
375.882	56.73213
376.097	-61.27913
376.311	-6.49763
376.526	-52.8523
376.741	-8.60492
376.955	20.89932
377.17	-57.06577
377.384	18.79172
377.599	-52.8523
377.813	65.16435
378.028	-25.46235
378.242	23.00695
378.457	-17.03383
378.672	-2.28298
378.886	44.08449
379.101	-19.141
379.315	-2.28298
379.53	-10.71218
379.744	90.46319
379.958	48.30027
380.173	-50.74553
380.387	88.35483
380.602	27.22227
380.816	10.36155
381.031	-21.24814
381.245	-17.03383
381.459	75.70514
381.674	14.57659
381.888	37.76098
382.103	-52.8523
382.317	-6.49763
382.531	8.25407
382.746	6.14661
382.96	27.22227
383.174	60.94819
383.388	54.62413
383.603	23.00695
383.817	-8.60492
384.031	39.86879
384.246	16.68414
384.46	65.16435
384.674	48.30027
384.888	48.30027
385.103	-8.60492
385.317	39.86879
385.531	14.57659
385.745	31.43768
385.959	18.79172
386.174	-14.92664
386.388	6.14661
386.602	-31.78348
386.816	14.57659
387.03	-2.28298
387.244	-19.141
387.458	39.86879
387.672	82.02988
387.887	-19.141
388.101	-19.141
388.315	-6.49763
388.529	33.54542
388.743	-14.92664
388.957	-14.92664
389.171	4.03918
389.385	35.65319
389.599	-8.60492
389.813	-57.06577
390.027	18.79172
390.241	-42.31821
390.455	39.86879
390.669	39.86879
390.883	-12.81942
391.097	25.11459
391.311	-35.99745
391.525	-46.53192
391.738	-23.35526
391.952	75.70514
392.166	-67.59898
392.38	69.38059
392.594	94.67998
392.808	94.67998
393.022	-2.28298
393.236	8.25407
393.449	1.93177
393.663	77.81336
393.877	39.86879
394.091	-35.99745
394.305	-19.141
394.518	29.32996
394.732	65.16435
394.946	60.94819
395.16	1.93177
395.373	-23.35526
395.587	27.22227
395.801	-0.17561
396.015	-82.34441
396.228	-61.27913
396.442	67.27246
396.656	25.11459
396.869	-8.60492
397.083	31.43768
397.297	77.81336
397.51	-27.56942
397.724	8.25407
397.938	-10.71218
398.151	8.25407
398.365	8.25407
398.578	-2.28298
398.792	-21.24814
399.005	23.00695
399.219	10.36155
399.433	-2.28298
399.646	-25.46235
399.86	-27.56942
400.073	8.25407
400.287	39.86879
400.5	-8.60492
400.714	-35.99745
400.927	44.08449
401.141	-101.30096
401.354	82.02988
401.567	44.08449
401.781	-0.17561
401.994	-46.53192
402.208	56.73213
402.421	-19.141
402.635	50.4082
402.848	-14.92664
403.061	6.14661
403.275	27.22227
403.488	39.86879
403.701	-50.74553
403.915	-17.03383
404.128	20.89932
404.341	-35.99745
404.555	14.57659
404.768	-50.74553
404.981	-10.71218
405.195	-8.60492
405.408	-73.91861
405.621	77.81336
405.834	-54.95905
406.048	-57.06577
406.261	52.51615
406.474	75.70514
406.687	18.79172
406.9	65.16435
407.114	-44.42508
407.327	79.92161
407.54	33.54542
407.753	67.27246
407.966	-17.03383
408.179	56.73213
408.392	23.00695
408.605	48.30027
408.819	1.93177
409.032	-0.17561
409.245	52.51615
409.458	-17.03383
409.671	-8.60492
409.884	-50.74553
410.097	-23.35526
410.31	8.25407
410.523	-27.56942
410.736	23.00695
410.949	14.57659
411.162	50.4082
411.375	10.36155
411.588	8.25407
411.801	48.30027
412.014	16.68414
412.227	-21.24814
412.44	39.86879
412.653	-0.17561
412.865	14.57659
413.078	60.94819
413.291	-27.56942
413.504	-10.71218
413.717	35.65319
413.93	10.36155
414.143	14.57659
414.356	-6.49763
414.568	25.11459
414.781	-97.08857
414.994	23.00695
415.207	-33.89048
415.42	-65.49239
415.632	-10.71218
415.845	-23.35526
416.058	-19.141
416.271	39.86879
416.483	6.14661
416.696	1.93177
416.909	-12.81942
417.121	33.54542
417.334	44.08449
417.547	33.54542
417.759	63.05626
417.972	35.65319
418.185	-54.95905
418.397	-19.141
418.61	77.81336
418.823	65.16435
419.035	-33.89048
419.248	109.43943
419.46	-10.71218
419.673	23.00695
419.885	39.86879
420.098	-8.60492
420.311	-61.27913
420.523	31.43768
420.736	31.43768
420.948	-40.21131
421.161	-86.55716
421.373	18.79172
421.586	10.36155
421.798	39.86879
422.01	10.36155
422.223	-6.49763
422.435	84.13817
422.648	10.36155
422.86	-27.56942
423.073	25.11459
423.285	84.13817
423.497	-2.28298
423.71	-44.42508
423.922	65.16435
424.134	39.86879
424.347	65.16435
424.559	33.54542
424.771	14.57659
424.984	-21.24814
425.196	-14.92664
425.408	14.57659
425.621	27.22227
425.833	33.54542
426.045	6.14661
426.257	8.25407
426.47	-2.28298
426.682	31.43768
426.894	-2.28298
427.106	39.86879
427.318	-4.39031
427.531	25.11459
427.743	56.73213
427.955	52.51615
428.167	1.93177
428.379	-14.92664
428.591	-35.99745
428.804	10.36155
429.016	37.76098
429.228	-2.28298
429.44	23.00695
429.652	-8.60492
429.864	23.00695
430.076	16.68414
430.288	56.73213
430.5	-17.03383
430.712	86.24649
430.924	-57.06577
431.136	115.76524
431.348	23.00695
431.56	-10.71218
431.772	-40.21131
431.984	44.08449
432.196	10.36155
432.408	39.86879
432.62	44.08449
432.832	6.14661
433.044	8.25407
433.256	-4.39031
433.468	-52.8523
433.679	27.22227
433.891	-19.141
434.103	27.22227
434.315	23.00695
434.527	-25.46235
434.739	37.76098
434.95	50.4082
435.162	-8.60492
435.374	35.65319
435.586	-57.06577
435.798	82.02988
436.009	84.13817
436.221	23.00695
436.433	12.46906
436.645	-35.99745
436.856	8.25407
437.068	20.89932
437.28	27.22227
437.491	31.43768
437.703	31.43768
437.915	29.32996
438.126	-48.63874
438.338	-10.71218
438.55	-40.21131
438.761	39.86879
438.973	18.79172
439.184	-44.42508
439.396	1.93177
439.608	10.36155
439.819	14.57659
440.031	27.22227
440.242	27.22227
440.454	56.73213
440.665	10.36155
440.877	48.30027
441.088	14.57659
441.3	-19.141
441.511	14.57659
441.723	6.14661
441.934	23.00695
442.146	37.76098
442.357	14.57659
442.569	-23.35526
442.78	-6.49763
442.991	6.14661
443.203	-44.42508
443.414	31.43768
443.626	60.94819
443.837	37.76098
444.048	56.73213
444.26	31.43768
444.471	-27.56942
444.682	18.79172
444.894	-27.56942
445.105	37.76098
445.316	52.51615
445.528	6.14661
445.739	33.54542
445.95	-2.28298
446.161	-25.46235
446.373	31.43768
446.584	56.73213
446.795	-17.03383
447.006	50.4082
447.217	18.79172
447.429	-67.59898
447.64	65.16435
447.851	-59.17246
448.062	35.65319
448.273	6.14661
448.484	-23.35526
448.695	6.14661
448.907	109.43943
449.118	-10.71218
449.329	37.76098
449.54	60.94819
449.751	48.30027
449.962	18.79172
450.173	27.22227
450.384	39.86879
450.595	-31.78348
450.806	33.54542
451.017	-31.78348
451.228	94.67998
451.439	54.62413
451.65	29.32996
451.861	-2.28298
452.072	-21.24814
452.283	-2.28298
452.494	44.08449
452.705	-23.35526
452.915	60.94819
453.126	33.54542
453.337	6.14661
453.548	23.00695
453.759	14.57659
453.97	6.14661
454.181	-6.49763
454.391	8.25407
454.602	16.68414
454.813	1.93177
455.024	-10.71218
455.235	4.03918
455.445	-46.53192
455.656	-44.42508
455.867	18.79172
456.078	33.54542
456.288	-10.71218
456.499	8.25407
456.71	-29.67646
456.921	-61.27913
457.131	27.22227
457.342	6.14661
457.553	-0.17561
457.763	4.03918
457.974	25.11459
458.184	63.05626
458.395	1.93177
458.606	41.97663
458.816	-4.39031
459.027	-23.35526
459.237	-17.03383
459.448	-2.28298
459.659	132.63502
459.869	-44.42508
460.08	88.35483
460.29	10.36155
460.501	-27.56942
460.711	65.16435
460.922	25.11459
461.132	33.54542
461.343	-69.70555
461.553	-0.17561
461.764	4.03918
461.974	-21.24814
462.184	-6.49763
462.395	-2.28298
462.605	67.27246
462.816	-25.46235
463.026	-63.38577
463.236	-48.63874
463.447	23.00695
463.657	-23.35526
463.867	-14.92664
464.078	-27.56942
464.288	14.57659
464.498	-29.67646
464.709	-17.03383
464.919	-25.46235
465.129	44.08449
465.339	39.86879
465.55	10.36155
465.76	-14.92664
465.97	-33.89048
466.18	-2.28298
466.391	-2.28298
466.601	18.79172
466.811	6.14661
467.021	-35.99745
467.231	-2.28298
467.441	-31.78348
467.651	33.54542
467.862	-17.03383
468.072	14.57659
468.282	56.73213
468.492	-78.13156
468.702	20.89932
468.912	-73.91861
469.122	-27.56942
469.332	-17.03383
469.542	-0.17561
469.752	-10.71218
469.962	-82.34441
470.172	52.51615
470.382	31.43768
470.592	-8.60492
470.802	-27.56942
471.012	69.38059
471.222	-40.21131
471.432	-69.70555
471.642	6.14661
471.852	90.46319
472.062	23.00695
472.272	14.57659
472.482	84.13817
472.691	-17.03383
472.901	-2.28298
473.111	25.11459
473.321	-4.39031
473.531	-31.78348
473.741	27.22227
473.95	18.79172
474.16	-17.03383
474.37	16.68414
474.58	10.36155
474.79	14.57659
474.999	14.57659
475.209	-61.27913
475.419	65.16435
475.628	-19.141
475.838	52.51615
476.048	-4.39031
476.258	29.32996
476.467	-46.53192
476.677	39.86879
476.886	-19.141
477.096	16.68414
477.306	-44.42508
477.515	-27.56942
477.725	-50.74553
477.935	65.16435
478.144	6.14661
478.354	-33.89048
478.563	46.19237
478.773	-46.53192
478.982	50.4082
479.192	8.25407
479.401	-17.03383
479.611	10.36155
479.82	-4.39031
480.03	-6.49763
480.239	10.36155
480.449	82.02988
480.658	46.19237
480.868	27.22227
481.077	23.00695
481.287	23.00695
481.496	16.68414
481.705	12.46906
481.915	10.36155
482.124	-35.99745
482.333	29.32996
482.543	-17.03383
482.752	-27.56942
482.961	16.68414
483.171	-57.06577
483.38	39.86879
483.589	44.08449
483.799	4.03918
484.008	-14.92664
484.217	58.84015
484.426	-6.49763
484.636	-71.81209
484.845	-6.49763
485.054	-73.91861
485.263	23.00695
485.472	86.24649
485.682	4.03918
485.891	6.14661
486.1	14.57659
486.309	29.32996
486.518	31.43768
486.727	69.38059
486.936	1.93177
487.146	33.54542
487.355	10.36155
487.564	54.62413
487.773	8.25407
487.982	27.22227
488.191	52.51615
488.4	52.51615
488.609	39.86879
488.818	-33.89048
489.027	10.36155
489.236	63.05626
489.445	-4.39031
489.654	-38.10439
489.863	-19.141
490.072	-19.141
490.281	-0.17561
490.49	41.97663
490.698	-40.21131
490.907	-38.10439
491.116	-48.63874
491.325	31.43768
491.534	10.36155
491.743	-50.74553
491.952	-0.17561
492.16	41.97663
492.369	-25.46235
492.578	12.46906
492.787	-40.21131
492.996	65.16435
493.204	-44.42508
493.413	14.57659
493.622	-29.67646
493.831	-27.56942
494.039	115.76524
494.248	-25.46235
494.457	12.46906
494.665	-19.141
494.874	-35.99745
495.083	-25.46235
495.291	-12.81942
495.5	-0.17561
495.709	50.4082
495.917	-19.141
496.126	6.14661
496.335	14.57659
496.543	29.32996
496.752	50.4082
496.96	12.46906
497.169	-10.71218
497.377	-50.74553
497.586	16.68414
497.794	-33.89048
498.003	6.14661
498.211	-2.28298
498.42	-4.39031
498.628	-4.39031
498.837	84.13817
499.045	107.33087
499.254	27.22227
499.462	35.65319
499.671	56.73213
499.879	-38.10439
500.087	37.76098
500.296	52.51615
500.504	69.38059
500.713	10.36155
500.921	86.24649
501.129	-52.8523
501.338	-0.17561
501.546	-31.78348
501.754	-10.71218
501.962	8.25407
502.171	25.11459
502.379	20.89932
502.587	27.22227
502.795	-31.78348
503.004	90.46319
503.212	20.89932
503.42	-94.98234
503.628	67.27246
503.837	69.38059
504.045	6.14661
504.253	39.86879
504.461	10.36155
504.669	-2.28298
504.877	4.03918
505.085	48.30027
505.294	-27.56942
505.502	69.38059
505.71	35.65319
505.918	6.14661
506.126	-54.95905
506.334	90.46319
506.542	6.14661
506.75	6.14661
506.958	-44.42508
507.166	6.14661
507.374	73.59693
507.582	23.00695
507.79	-23.35526
507.998	8.25407
508.206	-19.141
508.414	23.00695
508.622	1.93177
508.83	50.4082
509.037	27.22227
509.245	65.16435
509.453	-6.49763
509.661	31.43768
509.869	10.36155
510.077	-31.78348
510.285	-10.71218
510.492	8.25407
510.7	-44.42508
510.908	6.14661
511.116	18.79172
511.324	14.57659
511.531	1.93177
511.739	-10.71218
511.947	44.08449
512.155	-52.8523
512.362	-21.24814
512.57	-61.27913
512.778	44.08449
512.985	39.86879
513.193	-17.03383
513.401	50.4082
513.608	8.25407
513.816	56.73213
514.024	27.22227
514.231	35.65319
514.439	1.93177
514.646	-44.42508
514.854	31.43768
515.061	-4.39031
515.269	-0.17561
515.477	1.93177
515.684	-54.95905
515.892	12.46906
516.099	98.89685
516.307	73.59693
516.514	48.30027
516.722	4.03918
516.929	14.57659
517.136	18.79172
517.344	-38.10439
517.551	-2.28298
517.759	-14.92664
517.966	-48.63874
518.173	16.68414
518.381	-21.24814
518.588	-0.17561
518.796	23.00695
519.003	48.30027
519.21	-2.28298
519.418	33.54542
519.625	52.51615
519.832	14.57659
520.039	86.24649
520.247	48.30027
520.454	25.11459
520.661	-8.60492
520.868	31.43768
521.076	37.76098
521.283	48.30027
521.49	115.76524
521.697	44.08449
521.904	12.46906
522.112	69.38059
522.319	39.86879
522.526	-101.30096
522.733	35.65319
522.94	29.32996
523.147	25.11459
523.354	6.14661
523.561	73.59693
523.768	-6.49763
523.975	-14.92664
524.183	-0.17561
524.39	-10.71218
524.597	27.22227
524.804	-25.46235
525.011	27.22227
525.218	58.84015
525.425	71.48875
525.632	-23.35526
525.838	44.08449
526.045	-0.17561
526.252	-92.87609
526.459	16.68414
526.666	109.43943
526.873	-2.28298
527.08	67.27246
527.287	-25.46235
527.494	-10.71218
527.701	-23.35526
527.907	23.00695
528.114	56.73213
528.321	16.68414
528.528	29.32996
528.735	25.11459
528.941	4.03918
529.148	-23.35526
529.355	-38.10439
529.562	10.36155
529.768	23.00695
529.975	18.79172
530.182	33.54542
530.388	14.57659
530.595	67.27246
530.802	1.93177
531.008	23.00695
531.215	23.00695
531.422	-17.03383
531.628	-0.17561
531.835	12.46906
532.042	8.25407
532.248	71.48875
532.455	39.86879
532.661	48.30027
532.868	-8.60492
533.074	-17.03383
533.281	41.97663
533.487	33.54542
533.694	12.46906
533.9	60.94819
534.107	88.35483
534.313	44.08449
534.52	23.00695
534.726	69.38059
534.933	84.13817
535.139	8.25407
535.345	79.92161
535.552	-2.28298
535.758	-27.56942
535.965	-27.56942
536.171	-29.67646
536.377	-10.71218
536.584	6.14661
536.79	12.46906
536.996	12.46906
537.203	-2.28298
537.409	65.16435
537.615	14.57659
537.821	25.11459
538.028	-25.46235
538.234	25.11459
538.44	14.57659
538.646	-42.31821
538.853	-57.06577
539.059	-4.39031
539.265	8.25407
539.471	14.57659
539.677	44.08449
539.883	6.14661
540.09	-2.28298
540.296	50.4082
540.502	-14.92664
540.708	-14.92664
540.914	1.93177
541.12	50.4082
541.326	18.79172
541.532	8.25407
541.738	27.22227
541.944	79.92161
542.15	-23.35526
542.356	-0.17561
542.562	58.84015
542.768	60.94819
542.974	56.73213
543.18	-33.89048
543.386	1.93177
543.592	56.73213
543.798	-6.49763
544.004	-6.49763
544.21	16.68414
544.415	23.00695
544.621	8.25407
544.827	18.79172
545.033	-6.49763
545.239	27.22227
545.445	16.68414
545.651	58.84015
545.856	35.65319
546.062	4.03918
546.268	44.08449
546.474	41.97663
546.679	44.08449
546.885	58.84015
547.091	107.33087
547.297	23.00695
547.502	1.93177
547.708	-6.49763
547.914	-35.99745
548.119	58.84015
548.325	41.97663
548.531	31.43768
548.736	-10.71218
548.942	44.08449
549.147	-33.89048
549.353	37.76098
549.559	29.32996
549.764	-50.74553
549.97	39.86879
550.175	25.11459
550.381	52.51615
550.586	50.4082
550.792	-10.71218
550.997	-48.63874
551.203	-12.81942
551.408	25.11459
551.614	46.19237
551.819	14.57659
552.025	37.76098
552.23	75.70514
552.435	73.59693
552.641	23.00695
552.846	96.7884
553.052	39.86879
553.257	48.30027
553.462	1.93177
553.668	20.89932
553.873	8.25407
554.078	-10.71218
554.283	79.92161
554.489	12.46906
554.694	18.79172
554.899	-40.21131
555.105	48.30027
555.31	35.65319
555.515	6.14661
555.72	16.68414
555.925	-4.39031
556.131	-10.71218
556.336	77.81336
556.541	56.73213
556.746	33.54542
556.951	50.4082
557.156	10.36155
557.361	-14.92664
557.567	1.93177
557.772	65.16435
557.977	65.16435
558.182	39.86879
558.387	23.00695
558.592	10.36155
558.797	39.86879
559.002	6.14661
559.207	-31.78348
559.412	37.76098
559.617	-29.67646
559.822	60.94819
560.027	86.24649
560.232	-14.92664
560.437	20.89932
560.642	6.14661
560.847	-23.35526
561.051	33.54542
561.256	44.08449
561.461	31.43768
561.666	-21.24814
561.871	14.57659
562.076	145.28826
562.281	-23.35526
562.485	-8.60492
562.69	90.46319
562.895	52.51615
563.1	39.86879
563.305	20.89932
563.509	14.57659
563.714	-67.59898
563.919	12.46906
564.123	6.14661
564.328	31.43768
564.533	-27.56942
564.737	16.68414
564.942	73.59693
565.147	50.4082
565.351	73.59693
565.556	-14.92664
565.761	12.46906
565.965	33.54542
566.17	92.57157
566.374	-10.71218
566.579	6.14661
566.784	29.32996
566.988	-14.92664
567.193	94.67998
567.397	-23.35526
567.602	48.30027
567.806	20.89932
568.011	-19.141
568.215	35.65319
568.42	44.08449
568.624	-25.46235
568.828	77.81336
569.033	35.65319
569.237	20.89932
569.442	41.97663
569.646	39.86879
569.85	113.65661
570.055	56.73213
570.259	-4.39031
570.463	75.70514
570.668	12.46906
570.872	-44.42508
571.076	56.73213
571.281	103.11382
571.485	75.70514
571.689	52.51615
571.893	65.16435
572.098	23.00695
572.302	6.14661
572.506	44.08449
572.71	73.59693
572.914	27.22227
573.119	-8.60492
573.323	1.93177
573.527	-4.39031
573.731	4.03918
573.935	-2.28298
574.139	-14.92664
574.343	8.25407
574.547	-6.49763
574.751	71.48875
574.955	-12.81942
575.159	82.02988
575.364	37.76098
575.568	82.02988
575.772	56.73213
575.976	-0.17561
576.18	-12.81942
576.383	23.00695
576.587	56.73213
576.791	6.14661
576.995	-29.67646
577.199	4.03918
577.403	-40.21131
577.607	48.30027
577.811	35.65319
578.015	8.25407
578.219	52.51615
578.422	73.59693
578.626	-10.71218
578.83	82.02988
579.034	6.14661
579.238	75.70514
579.442	31.43768
579.645	27.22227
579.849	56.73213
580.053	65.16435
580.257	23.00695
580.46	4.03918
580.664	-10.71218
580.868	37.76098
581.071	69.38059
581.275	46.19237
581.479	1.93177
581.682	48.30027
581.886	60.94819
582.09	84.13817
582.293	-2.28298
582.497	105.22233
582.7	67.27246
582.904	105.22233
583.107	8.25407
583.311	-17.03383
583.515	117.87389
583.718	-61.27913
583.922	86.24649
584.125	56.73213
584.329	-14.92664
584.532	23.00695
584.735	39.86879
584.939	33.54542
585.142	31.43768
585.346	31.43768
585.549	86.24649
585.753	-29.67646
585.956	75.70514
586.159	65.16435
586.363	-10.71218
586.566	6.14661
586.769	14.57659
