Data from Scatter_Coeff_Baseline_USB4F045381__6__0006.txt Node

Date: Thu Feb 13 19:16:20 EST 2025
User: mmckonesweet
Spectrometer: USB4F04538
Trigger mode: 4
Integration Time (sec): 2.400000E-3
Scans to average: 1
Electric dark correction enabled: true
Nonlinearity correction enabled: true
Boxcar width: 0
XAxis mode: Wavelengths
Number of Pixels in Spectrum: 3648
>>>>>Begin Spectral Data<<<<<
345.52	-14.57544
345.736	-14.57544
345.952	-14.57544
346.168	29.68125
346.384	59.19149
346.6	-6.14641
346.816	-29.32529
347.032	-10.36097
347.248	31.78897
347.464	4.39042
347.68	-41.96706
347.896	-20.89695
348.112	40.22009
348.328	54.97546
348.544	-6.14641
348.76	21.25059
348.975	-37.75323
349.191	12.82031
349.407	42.32793
349.623	52.86748
349.839	-92.52504
350.055	101.35674
350.27	38.11228
350.486	0.17561
350.702	50.75953
350.918	25.46587
351.133	-16.68263
351.349	25.46587
351.565	-12.46822
351.781	52.86748
351.996	0.17561
352.212	0.17561
352.428	38.11228
352.644	40.22009
352.859	25.46587
353.075	17.0354
353.291	-65.14129
353.506	8.60532
353.722	-6.14641
353.938	14.92785
354.153	-41.96706
354.369	2.283
354.584	-29.32529
354.8	-16.68263
355.016	63.4076
355.231	54.97546
355.447	-31.43231
355.662	88.70622
355.878	38.11228
356.093	-27.21824
356.309	69.73195
356.524	-27.21824
356.74	17.0354
356.955	36.00449
357.171	-50.3944
357.386	-27.21824
357.602	48.65159
357.817	21.25059
358.033	-23.00407
358.248	88.70622
358.464	42.32793
358.679	65.5157
358.895	42.32793
359.11	-8.2537
359.325	-50.3944
359.541	23.35822
359.756	10.7128
359.972	-14.57544
360.187	21.25059
360.402	31.78897
360.618	-90.41875
360.833	-81.99334
361.048	8.60532
361.264	8.60532
361.479	-29.32529
361.694	107.68229
361.909	0.17561
362.125	14.92785
362.34	-31.43231
362.555	21.25059
362.77	0.17561
362.986	46.54368
363.201	46.54368
363.416	143.53082
363.631	80.27299
363.847	-23.00407
364.062	46.54368
364.277	118.22533
364.492	57.08346
364.707	67.62381
364.922	-65.14129
365.138	10.7128
365.353	-27.21824
365.568	4.39042
365.783	36.00449
365.998	-8.2537
366.213	2.283
366.428	-29.32529
366.643	105.57375
366.858	54.97546
367.073	-8.2537
367.288	-18.7898
367.503	17.0354
367.718	-90.41875
367.933	76.05651
368.148	-4.03909
368.363	12.82031
368.578	-33.53931
368.793	-8.2537
369.008	-14.57544
369.223	-20.89695
369.438	67.62381
369.653	-60.92802
369.868	12.82031
370.083	-12.46822
370.298	29.68125
370.513	-63.03467
370.728	-56.71465
370.943	101.35674
371.157	25.46587
371.372	80.27299
371.587	-31.43231
371.802	-8.2537
372.017	80.27299
372.232	76.05651
372.446	46.54368
372.661	-27.21824
372.876	14.92785
373.091	27.57355
373.306	33.89672
373.52	4.39042
373.735	27.57355
373.95	4.39042
374.165	-8.2537
374.379	-16.68263
374.594	48.65159
374.809	-29.32529
375.023	-54.60793
375.238	-6.14641
375.453	8.60532
375.667	-6.14641
375.882	31.78897
376.097	31.78897
376.311	27.57355
376.526	8.60532
376.741	4.39042
376.955	8.60532
377.17	-10.36097
377.384	4.39042
377.599	-58.82135
377.813	44.4358
378.028	38.11228
378.242	10.7128
378.457	19.14299
378.672	25.46587
378.886	-25.11117
379.101	8.60532
379.315	-25.11117
379.53	-29.32529
379.744	-12.46822
379.958	25.46587
380.173	-29.32529
380.387	21.25059
380.602	12.82031
380.816	-33.53931
381.031	63.4076
381.245	38.11228
381.459	61.29953
381.674	-12.46822
381.888	12.82031
382.103	63.4076
382.317	6.49786
382.531	80.27299
382.746	-41.96706
382.96	21.25059
383.174	38.11228
383.388	10.7128
383.603	29.68125
383.817	4.39042
384.031	57.08346
384.246	25.46587
384.46	19.14299
384.674	-14.57544
384.888	25.46587
385.103	8.60532
385.317	44.4358
385.531	0.17561
385.745	-37.75323
385.959	2.283
386.174	-20.89695
386.388	33.89672
386.602	67.62381
386.816	-23.00407
387.03	59.19149
387.244	-29.32529
387.458	-6.14641
387.672	29.68125
387.887	25.46587
388.101	-6.14641
388.315	23.35822
388.529	73.9483
388.743	-27.21824
388.957	0.17561
389.171	44.4358
389.385	10.7128
389.599	82.38126
389.813	90.81458
390.027	63.4076
390.241	-12.46822
390.455	-8.2537
390.669	46.54368
390.883	-29.32529
391.097	17.0354
391.311	88.70622
391.525	42.32793
391.738	-8.2537
391.952	54.97546
392.166	17.0354
392.38	59.19149
392.594	59.19149
392.808	31.78897
393.022	25.46587
393.236	8.60532
393.449	-12.46822
393.663	90.81458
393.877	82.38126
394.091	78.16474
394.305	2.283
394.518	69.73195
394.732	4.39042
394.946	17.0354
395.16	42.32793
395.373	-54.60793
395.587	-6.14641
395.801	0.17561
396.015	50.75953
396.228	12.82031
396.442	17.0354
396.656	19.14299
396.869	21.25059
397.083	17.0354
397.297	0.17561
397.51	12.82031
397.724	31.78897
397.938	-56.71465
398.151	0.17561
398.365	67.62381
398.578	33.89672
398.792	-6.14641
399.005	29.68125
399.219	52.86748
399.433	-8.2537
399.646	29.68125
399.86	103.46523
400.073	-4.03909
400.287	8.60532
400.5	-1.93175
400.714	31.78897
400.927	2.283
401.141	-4.03909
401.354	38.11228
401.567	17.0354
401.781	52.86748
401.994	84.48956
402.208	33.89672
402.421	50.75953
402.635	52.86748
402.848	29.68125
403.061	0.17561
403.275	8.60532
403.488	-50.3944
403.701	17.0354
403.915	111.89944
404.128	42.32793
404.341	-16.68263
404.555	29.68125
404.768	-4.03909
404.981	-39.86016
405.195	14.92785
405.408	12.82031
405.621	17.0354
405.834	-8.2537
406.048	27.57355
406.261	-16.68263
406.474	52.86748
406.687	42.32793
406.9	6.49786
407.114	-41.96706
407.327	-1.93175
407.54	-6.14641
407.753	92.92297
407.966	4.39042
408.179	76.05651
408.392	0.17561
408.605	-39.86016
408.819	-6.14641
409.032	29.68125
409.245	8.60532
409.458	40.22009
409.671	-16.68263
409.884	10.7128
410.097	0.17561
410.31	-16.68263
410.523	21.25059
410.736	12.82031
410.949	61.29953
411.162	19.14299
411.375	-20.89695
411.588	17.0354
411.801	17.0354
412.014	33.89672
412.227	38.11228
412.44	23.35822
412.653	14.92785
412.865	52.86748
413.078	61.29953
413.291	-8.2537
413.504	31.78897
413.717	86.59788
413.93	-29.32529
414.143	38.11228
414.356	-12.46822
414.568	4.39042
414.781	33.89672
414.994	0.17561
415.207	-23.00407
415.42	-25.11117
415.632	-12.46822
415.845	27.57355
416.058	-16.68263
416.271	8.60532
416.483	36.00449
416.696	63.4076
416.909	21.25059
417.121	78.16474
417.334	-23.00407
417.547	33.89672
417.759	59.19149
417.972	27.57355
418.185	19.14299
418.397	-23.00407
418.61	63.4076
418.823	78.16474
419.035	50.75953
419.248	19.14299
419.46	-33.53931
419.673	-16.68263
419.885	38.11228
420.098	19.14299
420.311	0.17561
420.523	44.4358
420.736	59.19149
420.948	67.62381
421.161	63.4076
421.373	-8.2537
421.586	-29.32529
421.798	33.89672
422.01	0.17561
422.223	95.03138
422.435	-77.78048
422.648	-46.18078
422.86	0.17561
423.073	61.29953
423.285	27.57355
423.497	0.17561
423.71	-27.21824
423.922	-4.03909
424.134	21.25059
424.347	25.46587
424.559	0.17561
424.771	67.62381
424.984	42.32793
425.196	59.19149
425.408	-41.96706
425.621	10.7128
425.833	67.62381
426.045	-50.3944
426.257	-63.03467
426.47	-33.53931
426.682	14.92785
426.894	19.14299
427.106	12.82031
427.318	50.75953
427.531	21.25059
427.743	76.05651
427.955	33.89672
428.167	48.65159
428.379	17.0354
428.591	54.97546
428.804	17.0354
429.016	27.57355
429.228	8.60532
429.44	-12.46822
429.652	-52.50118
429.864	-50.3944
430.076	-50.3944
430.288	76.05651
430.5	21.25059
430.712	25.46587
430.924	-37.75323
431.136	25.46587
431.348	50.75953
431.56	40.22009
431.772	27.57355
431.984	-67.24789
432.196	97.13981
432.408	10.7128
432.62	2.283
432.832	-4.03909
433.044	42.32793
433.256	-23.00407
433.468	-50.3944
433.679	4.39042
433.891	-20.89695
434.103	-8.2537
434.315	-6.14641
434.527	46.54368
434.739	42.32793
434.95	0.17561
435.162	-31.43231
435.374	27.57355
435.586	44.4358
435.798	63.4076
436.009	-65.14129
436.221	-18.7898
436.433	8.60532
436.645	-41.96706
436.856	61.29953
437.068	0.17561
437.28	44.4358
437.491	48.65159
437.703	4.39042
437.915	-8.2537
438.126	10.7128
438.338	21.25059
438.55	6.49786
438.761	0.17561
438.973	0.17561
439.184	65.5157
439.396	-88.31244
439.608	2.283
439.819	38.11228
440.031	19.14299
440.242	42.32793
440.454	101.35674
440.665	-31.43231
440.877	63.4076
441.088	46.54368
441.3	4.39042
441.511	17.0354
441.723	38.11228
441.934	-39.86016
442.146	33.89672
442.357	6.49786
442.569	50.75953
442.78	-25.11117
442.991	8.60532
443.203	25.46587
443.414	42.32793
443.626	33.89672
443.837	-4.03909
444.048	-6.14641
444.26	-35.64629
444.471	-27.21824
444.682	0.17561
444.894	33.89672
445.105	25.46587
445.316	-4.03909
445.528	-48.28761
445.739	-39.86016
445.95	17.0354
446.161	-23.00407
446.373	25.46587
446.584	-16.68263
446.795	44.4358
447.006	-56.71465
447.217	33.89672
447.429	-27.21824
447.64	67.62381
447.851	88.70622
448.062	33.89672
448.273	31.78897
448.484	33.89672
448.695	50.75953
448.907	0.17561
449.118	-56.71465
449.329	-39.86016
449.54	-84.09974
449.751	27.57355
449.962	27.57355
450.173	46.54368
450.384	-1.93175
450.595	27.57355
450.806	36.00449
451.017	-31.43231
451.228	61.29953
451.439	6.49786
451.65	-23.00407
451.861	17.0354
452.072	42.32793
452.283	33.89672
452.494	19.14299
452.705	31.78897
452.915	-8.2537
453.126	-8.2537
453.337	-14.57544
453.548	10.7128
453.759	25.46587
453.97	8.60532
454.181	31.78897
454.391	-12.46822
454.602	-8.2537
454.813	33.89672
455.024	36.00449
455.235	31.78897
455.445	-8.2537
455.656	12.82031
455.867	17.0354
456.078	0.17561
456.288	17.0354
456.499	78.16474
456.71	80.27299
456.921	0.17561
457.131	0.17561
457.342	63.4076
457.553	0.17561
457.763	14.92785
457.974	65.5157
458.184	8.60532
458.395	25.46587
458.606	21.25059
458.816	0.17561
459.027	54.97546
459.237	52.86748
459.448	33.89672
459.659	-48.28761
459.869	61.29953
460.08	-25.11117
460.29	8.60532
460.501	-23.00407
460.711	31.78897
460.922	57.08346
461.132	2.283
461.343	52.86748
461.553	38.11228
461.764	-12.46822
461.974	42.32793
462.184	12.82031
462.395	42.32793
462.605	2.283
462.816	59.19149
463.026	61.29953
463.236	-18.7898
463.447	-4.03909
463.657	69.73195
463.867	50.75953
464.078	25.46587
464.288	-58.82135
464.498	-56.71465
464.709	-56.71465
464.919	78.16474
465.129	-23.00407
465.339	17.0354
465.55	17.0354
465.76	-10.36097
465.97	12.82031
466.18	29.68125
466.391	12.82031
466.601	95.03138
466.811	-29.32529
467.021	2.283
467.231	67.62381
467.441	44.4358
467.651	29.68125
467.862	-6.14641
468.072	-46.18078
468.282	0.17561
468.492	27.57355
468.702	-12.46822
468.912	-48.28761
469.122	19.14299
469.332	10.7128
469.542	-18.7898
469.752	0.17561
469.962	-65.14129
470.172	33.89672
470.382	63.4076
470.592	14.92785
470.802	42.32793
471.012	4.39042
471.222	57.08346
471.432	-54.60793
471.642	-31.43231
471.852	25.46587
472.062	-37.75323
472.272	-29.32529
472.482	21.25059
472.691	-14.57544
472.901	8.60532
473.111	42.32793
473.321	-41.96706
473.531	76.05651
473.741	-12.46822
473.95	-23.00407
474.16	-79.88693
474.37	-54.60793
474.58	105.57375
474.79	40.22009
474.999	-4.03909
475.209	42.32793
475.419	-31.43231
475.628	-75.67402
475.838	-8.2537
476.048	12.82031
476.258	-6.14641
476.467	63.4076
476.677	65.5157
476.886	61.29953
477.096	-10.36097
477.306	-25.11117
477.515	42.32793
477.725	2.283
477.935	-14.57544
478.144	73.9483
478.354	46.54368
478.563	-41.96706
478.773	38.11228
478.982	-46.18078
479.192	8.60532
479.401	71.84011
479.611	-8.2537
479.82	6.49786
480.03	-50.3944
480.239	84.48956
480.449	4.39042
480.658	50.75953
480.868	33.89672
481.077	8.60532
481.287	63.4076
481.496	42.32793
481.705	31.78897
481.915	50.75953
482.124	59.19149
482.333	-8.2537
482.543	-33.53931
482.752	-25.11117
482.961	88.70622
483.171	4.39042
483.38	-58.82135
483.589	-31.43231
483.799	25.46587
484.008	54.97546
484.217	4.39042
484.426	21.25059
484.636	76.05651
484.845	61.29953
485.054	4.39042
485.263	48.65159
485.472	-109.3744
485.682	29.68125
485.891	27.57355
486.1	8.60532
486.309	8.60532
486.518	12.82031
486.727	17.0354
486.936	21.25059
487.146	42.32793
487.355	-4.03909
487.564	12.82031
487.773	-12.46822
487.982	59.19149
488.191	-16.68263
488.4	69.73195
488.609	-14.57544
488.818	-31.43231
489.027	92.92297
489.236	8.60532
489.445	44.4358
489.654	0.17561
489.863	-25.11117
490.072	25.46587
490.281	-4.03909
490.49	-6.14641
490.698	-25.11117
490.907	44.4358
491.116	-16.68263
491.325	21.25059
491.534	-25.11117
491.743	-46.18078
491.952	48.65159
492.16	38.11228
492.369	50.75953
492.578	143.53082
492.787	33.89672
492.996	25.46587
493.204	38.11228
493.413	-14.57544
493.622	65.5157
493.831	29.68125
494.039	0.17561
494.248	8.60532
494.457	44.4358
494.665	63.4076
494.874	4.39042
495.083	63.4076
495.291	27.57355
495.5	67.62381
495.709	17.0354
495.917	6.49786
496.126	33.89672
496.335	-16.68263
496.543	17.0354
496.752	111.89944
496.96	-48.28761
497.169	44.4358
497.377	59.19149
497.586	-20.89695
497.794	-12.46822
498.003	52.86748
498.211	14.92785
498.42	42.32793
498.628	-4.03909
498.837	21.25059
499.045	-6.14641
499.254	80.27299
499.462	23.35822
499.671	-25.11117
499.879	-33.53931
500.087	-16.68263
500.296	54.97546
500.504	27.57355
500.713	-63.03467
500.921	71.84011
501.129	-25.11117
501.338	-63.03467
501.546	2.283
501.754	8.60532
501.962	-6.14641
502.171	17.0354
502.379	27.57355
502.587	-10.36097
502.795	27.57355
503.004	46.54368
503.212	-46.18078
503.42	8.60532
503.628	29.68125
503.837	-8.2537
504.045	27.57355
504.253	21.25059
504.461	33.89672
504.669	36.00449
504.877	-39.86016
505.085	-20.89695
505.294	-37.75323
505.502	48.65159
505.71	14.92785
505.918	63.4076
506.126	71.84011
506.334	36.00449
506.542	-16.68263
506.75	25.46587
506.958	-16.68263
507.166	17.0354
507.374	38.11228
507.582	-33.53931
507.79	80.27299
507.998	50.75953
508.206	-46.18078
508.414	36.00449
508.622	10.7128
508.83	12.82031
509.037	54.97546
509.245	33.89672
509.453	-33.53931
509.661	29.68125
509.869	46.54368
510.077	17.0354
510.285	48.65159
510.492	44.4358
510.7	25.46587
510.908	-12.46822
511.116	25.46587
511.324	29.68125
511.531	46.54368
511.739	46.54368
511.947	-39.86016
512.155	25.46587
512.362	-4.03909
512.57	38.11228
512.778	-69.35446
512.985	21.25059
513.193	17.0354
513.401	2.283
513.608	14.92785
513.816	82.38126
514.024	-6.14641
514.231	-65.14129
514.439	29.68125
514.646	-35.64629
514.854	8.60532
515.061	33.89672
515.269	-25.11117
515.477	27.57355
515.684	10.7128
515.892	52.86748
516.099	0.17561
516.307	2.283
516.514	-14.57544
516.722	19.14299
516.929	21.25059
517.136	-23.00407
517.344	0.17561
517.551	54.97546
517.759	-25.11117
517.966	61.29953
518.173	25.46587
518.381	-39.86016
518.588	17.0354
518.796	17.0354
519.003	10.7128
519.21	-6.14641
519.418	-54.60793
519.625	-14.57544
519.832	-50.3944
520.039	101.35674
520.247	-10.36097
520.454	-23.00407
520.661	21.25059
520.868	-16.68263
521.076	27.57355
521.283	63.4076
521.49	-6.14641
521.697	25.46587
521.904	-25.11117
522.112	-6.14641
522.319	17.0354
522.526	-25.11117
522.733	27.57355
522.94	101.35674
523.147	-46.18078
523.354	-8.2537
523.561	-27.21824
523.768	63.4076
523.975	-6.14641
524.183	14.92785
524.39	21.25059
524.597	59.19149
524.804	-14.57544
525.011	4.39042
525.218	-25.11117
525.425	80.27299
525.632	-6.14641
525.838	8.60532
526.045	33.89672
526.252	33.89672
526.459	-41.96706
526.666	-12.46822
526.873	-35.64629
527.08	50.75953
527.287	-10.36097
527.494	76.05651
527.701	25.46587
527.907	2.283
528.114	33.89672
528.321	17.0354
528.528	67.62381
528.735	10.7128
528.941	-23.00407
529.148	-41.96706
529.355	46.54368
529.562	27.57355
529.768	-31.43231
529.975	-54.60793
530.182	17.0354
530.388	-1.93175
530.595	38.11228
530.802	4.39042
531.008	-18.7898
531.215	27.57355
531.422	40.22009
531.628	52.86748
531.835	63.4076
532.042	-37.75323
532.248	-44.07393
532.455	-1.93175
532.661	0.17561
532.868	27.57355
533.074	-10.36097
533.281	-50.3944
533.487	6.49786
533.694	8.60532
533.9	17.0354
534.107	4.39042
534.313	6.49786
534.52	23.35822
534.726	4.39042
534.933	59.19149
535.139	6.49786
535.345	17.0354
535.552	-8.2537
535.758	38.11228
535.965	-25.11117
536.171	57.08346
536.377	2.283
536.584	-14.57544
536.79	48.65159
536.996	-12.46822
537.203	-10.36097
537.409	33.89672
537.615	12.82031
537.821	4.39042
538.028	36.00449
538.234	-29.32529
538.44	-41.96706
538.646	-60.92802
538.853	-25.11117
539.059	95.03138
539.265	-8.2537
539.471	59.19149
539.677	2.283
539.883	-6.14641
540.09	80.27299
540.296	42.32793
540.502	-39.86016
540.708	42.32793
540.914	10.7128
541.12	42.32793
541.326	69.73195
541.532	40.22009
541.738	17.0354
541.944	33.89672
542.15	-41.96706
542.356	23.35822
542.562	54.97546
542.768	-16.68263
542.974	40.22009
543.18	-46.18078
543.386	-46.18078
543.592	-50.3944
543.798	84.48956
544.004	10.7128
544.21	25.46587
544.415	38.11228
544.621	-46.18078
544.827	-6.14641
545.033	50.75953
545.239	42.32793
545.445	-20.89695
545.651	33.89672
545.856	-29.32529
546.062	-27.21824
546.268	33.89672
546.474	25.46587
546.679	-58.82135
546.885	-48.28761
547.091	33.89672
547.297	29.68125
547.502	19.14299
547.708	84.48956
547.914	17.0354
548.119	0.17561
548.325	-16.68263
548.531	17.0354
548.736	29.68125
548.942	38.11228
549.147	14.92785
549.353	-12.46822
549.559	105.57375
549.764	33.89672
549.97	-10.36097
550.175	-4.03909
550.381	54.97546
550.586	-8.2537
550.792	-4.03909
550.997	17.0354
551.203	-8.2537
551.408	38.11228
551.614	0.17561
551.819	-35.64629
552.025	27.57355
552.23	-18.7898
552.435	-8.2537
552.641	19.14299
552.846	84.48956
553.052	-12.46822
553.257	50.75953
553.462	-29.32529
553.668	-16.68263
553.873	-29.32529
554.078	-14.57544
554.283	33.89672
554.489	33.89672
554.694	19.14299
554.899	6.49786
555.105	-8.2537
555.31	54.97546
555.515	-33.53931
555.72	-23.00407
555.925	4.39042
556.131	14.92785
556.336	118.22533
556.541	19.14299
556.746	67.62381
556.951	17.0354
557.156	-4.03909
557.361	-41.96706
557.567	-4.03909
557.772	63.4076
557.977	-35.64629
558.182	-8.2537
558.387	50.75953
558.592	14.92785
558.797	38.11228
559.002	12.82031
559.207	29.68125
559.412	67.62381
559.617	21.25059
559.822	29.68125
560.027	4.39042
560.232	21.25059
560.437	25.46587
560.642	-20.89695
560.847	0.17561
561.051	-27.21824
561.256	17.0354
561.461	23.35822
561.666	-56.71465
561.871	65.5157
562.076	0.17561
562.281	0.17561
562.485	0.17561
562.69	-10.36097
562.895	29.68125
563.1	-54.60793
563.305	52.86748
563.509	2.283
563.714	-33.53931
563.919	25.46587
564.123	59.19149
564.328	44.4358
564.533	44.4358
564.737	59.19149
564.942	33.89672
565.147	27.57355
565.351	65.5157
565.556	21.25059
565.761	19.14299
565.965	-23.00407
566.17	6.49786
566.374	33.89672
566.579	17.0354
566.784	8.60532
566.988	-25.11117
567.193	59.19149
567.397	-58.82135
567.602	0.17561
567.806	130.87769
568.011	19.14299
568.215	-14.57544
568.42	-56.71465
568.624	33.89672
568.828	-39.86016
569.033	40.22009
569.237	19.14299
569.442	-10.36097
569.646	25.46587
569.85	48.65159
570.055	67.62381
570.259	44.4358
570.463	8.60532
570.668	33.89672
570.872	8.60532
571.076	-16.68263
571.281	61.29953
571.485	52.86748
571.689	17.0354
571.893	120.334
572.098	12.82031
572.302	14.92785
572.506	61.29953
572.71	109.79086
572.914	86.59788
573.119	17.0354
573.323	95.03138
573.527	-25.11117
573.731	-10.36097
573.935	40.22009
574.139	86.59788
574.343	-29.32529
574.547	33.89672
574.751	46.54368
574.955	-16.68263
575.159	38.11228
575.364	42.32793
575.568	10.7128
575.772	31.78897
575.976	38.11228
576.18	8.60532
576.383	44.4358
576.587	-8.2537
576.791	67.62381
576.995	4.39042
577.199	8.60532
577.403	52.86748
577.607	-39.86016
577.811	86.59788
578.015	-6.14641
578.219	73.9483
578.422	-41.96706
578.626	6.49786
578.83	2.283
579.034	38.11228
579.238	17.0354
579.442	38.11228
579.645	-8.2537
579.849	-50.3944
580.053	2.283
580.257	71.84011
580.46	42.32793
580.664	44.4358
580.868	10.7128
581.071	-12.46822
581.275	-14.57544
581.479	59.19149
581.682	0.17561
581.886	0.17561
582.09	2.283
582.293	44.4358
582.497	54.97546
582.7	17.0354
582.904	-14.57544
583.107	-4.03909
583.311	50.75953
583.515	25.46587
583.718	-58.82135
583.922	-23.00407
584.125	46.54368
584.329	-4.03909
584.532	-33.53931
584.735	-4.03909
584.939	0.17561
585.142	-33.53931
585.346	-31.43231
585.549	-58.82135
585.753	14.92785
585.956	-6.14641
586.159	-16.68263
586.363	-12.46822
586.566	-20.89695
586.769	80.27299
586.973	54.97546
587.176	2.283
587.379	19.14299
587.582	44.4358
587.786	17.0354
587.989	76.05651
588.192	4.39042
588.395	6.49786
588.599	-8.2537
588.802	-56.71465
589.005	59.19149
589.208	44.4358
