Data from Scatter_Coeff_Baseline_USB4F045381__30__0030.txt Node

Date: Thu Feb 13 19:22:19 EST 2025
User: mmckonesweet
Spectrometer: USB4F04538
Trigger mode: 4
Integration Time (sec): 2.400000E-3
Scans to average: 1
Electric dark correction enabled: true
Nonlinearity correction enabled: true
Boxcar width: 0
XAxis mode: Wavelengths
Number of Pixels in Spectrum: 3648
>>>>>Begin Spectral Data<<<<<
345.52	64.98867
345.736	64.98867
345.952	64.98867
346.168	83.96248
346.384	18.61609
346.6	-23.53085
346.816	43.90883
347.032	18.61609
347.248	-4.56592
347.464	-15.10224
347.68	-36.17303
347.896	27.04663
348.112	35.47754
348.328	-17.20943
348.544	-23.53085
348.76	33.36978
348.975	-38.27997
349.191	16.50851
349.407	1.75615
349.623	18.61609
349.839	29.15432
350.055	-17.20943
350.27	62.88058
350.486	-0.35123
350.702	27.04663
350.918	-44.60065
351.133	14.40096
351.349	-15.10224
351.565	-6.67324
351.781	22.83131
351.996	3.86356
352.212	-61.45468
352.428	86.0708
352.644	37.58533
352.859	-31.95906
353.075	-10.88778
353.291	35.47754
353.506	22.83131
353.722	56.55646
353.938	24.93896
354.153	-0.35123
354.369	48.12461
354.584	22.83131
354.8	31.26204
355.016	64.98867
355.231	24.93896
355.447	62.88058
355.662	-27.74501
355.878	33.36978
356.093	56.55646
356.309	-2.45859
356.524	-10.88778
356.74	-2.45859
356.955	35.47754
357.171	5.97099
357.386	22.83131
357.602	-80.41353
357.817	56.55646
358.033	-19.31659
358.248	-42.49378
358.464	88.17913
358.679	33.36978
358.895	86.0708
359.11	-8.78052
359.325	-10.88778
359.541	64.98867
359.756	24.93896
359.972	67.09678
360.187	-61.45468
360.402	56.55646
360.618	10.18593
360.833	56.55646
361.048	-23.53085
361.264	-15.10224
361.479	69.20492
361.694	-6.67324
361.909	27.04663
362.125	43.90883
362.34	50.23254
362.555	10.18593
362.77	58.66448
362.986	50.23254
363.201	81.85419
363.416	22.83131
363.631	16.50851
363.847	90.28749
364.062	35.47754
364.277	46.01671
364.492	-23.53085
364.707	35.47754
364.922	16.50851
365.138	-25.63794
365.353	64.98867
365.568	31.26204
365.783	77.63768
365.998	18.61609
366.213	60.77252
366.428	22.83131
366.643	24.93896
366.858	3.86356
367.073	60.77252
367.288	22.83131
367.503	52.34049
367.718	27.04663
367.933	1.75615
368.148	39.69314
368.363	-8.78052
368.578	14.40096
368.793	-27.74501
369.008	-23.53085
369.223	52.34049
369.438	-23.53085
369.653	-19.31659
369.868	102.93811
370.083	14.40096
370.298	37.58533
370.513	39.69314
370.728	79.74592
370.943	64.98867
371.157	41.80097
371.372	14.40096
371.587	-27.74501
371.802	22.83131
372.017	58.66448
372.232	-17.20943
372.446	43.90883
372.661	73.42125
372.876	-0.35123
373.091	56.55646
373.306	3.86356
373.52	-44.60065
373.735	43.90883
373.95	-2.45859
374.165	22.83131
374.379	56.55646
374.594	58.66448
374.809	27.04663
375.023	39.69314
375.238	22.83131
375.453	-48.81431
375.667	31.26204
375.882	48.12461
376.097	117.69816
376.311	-61.45468
376.526	-27.74501
376.741	-10.88778
376.955	24.93896
377.17	-10.88778
377.384	39.69314
377.599	27.04663
377.813	3.86356
378.028	50.23254
378.242	14.40096
378.457	-23.53085
378.672	12.29343
378.886	39.69314
379.101	14.40096
379.315	-10.88778
379.53	18.61609
379.744	20.72369
379.958	-34.06606
380.173	60.77252
380.387	52.34049
380.602	-25.63794
380.816	67.09678
381.031	128.24171
381.245	71.31307
381.459	77.63768
381.674	62.88058
381.888	94.50427
382.103	24.93896
382.317	-4.56592
382.531	22.83131
382.746	10.18593
382.96	113.4809
383.174	-27.74501
383.388	92.39587
383.603	-23.53085
383.817	-15.10224
384.031	56.55646
384.246	-10.88778
384.46	81.85419
384.674	18.61609
384.888	-15.10224
385.103	69.20492
385.317	69.20492
385.531	69.20492
385.745	-93.05161
385.959	33.36978
386.174	27.04663
386.388	20.72369
386.602	12.29343
386.816	50.23254
387.03	64.98867
387.244	-0.35123
387.458	-69.8811
387.672	52.34049
387.887	14.40096
388.101	-40.38689
388.315	8.07845
388.529	75.52945
388.743	96.6127
388.957	-53.02787
389.171	56.55646
389.385	43.90883
389.599	33.36978
389.813	115.58952
390.027	-8.78052
390.241	48.12461
390.455	69.20492
390.669	60.77252
390.883	22.83131
391.097	5.97099
391.311	-6.67324
391.525	-29.85205
391.738	60.77252
391.952	10.18593
392.166	31.26204
392.38	37.58533
392.594	-34.06606
392.808	83.96248
393.022	1.75615
393.236	31.26204
393.449	-78.3071
393.663	69.20492
393.877	43.90883
394.091	31.26204
394.305	16.50851
394.518	24.93896
394.732	58.66448
394.946	48.12461
395.16	29.15432
395.373	29.15432
395.587	48.12461
395.801	16.50851
396.015	94.50427
396.228	-10.88778
396.442	56.55646
396.656	75.52945
396.869	79.74592
397.083	35.47754
397.297	48.12461
397.51	33.36978
397.724	-36.17303
397.938	27.04663
398.151	29.15432
398.365	-19.31659
398.578	-36.17303
398.792	115.58952
399.005	12.29343
399.219	39.69314
399.433	79.74592
399.646	-19.31659
399.86	-36.17303
400.073	18.61609
400.287	1.75615
400.5	33.36978
400.714	52.34049
400.927	-31.95906
401.141	22.83131
401.354	27.04663
401.567	50.23254
401.781	67.09678
401.994	-0.35123
402.208	64.98867
402.421	43.90883
402.635	75.52945
402.848	96.6127
403.061	31.26204
403.275	-0.35123
403.488	10.18593
403.701	75.52945
403.915	3.86356
404.128	43.90883
404.341	50.23254
404.555	18.61609
404.768	64.98867
404.981	-27.74501
405.195	5.97099
405.408	90.28749
405.621	77.63768
405.834	64.98867
406.048	-31.95906
406.261	31.26204
406.474	-10.88778
406.687	48.12461
406.9	1.75615
407.114	1.75615
407.327	-0.35123
407.54	5.97099
407.753	39.69314
407.966	64.98867
408.179	46.01671
408.392	10.18593
408.605	10.18593
408.819	-53.02787
409.032	-27.74501
409.245	-6.67324
409.458	88.17913
409.671	22.83131
409.884	58.66448
410.097	-53.02787
410.31	62.88058
410.523	8.07845
410.736	-21.42373
410.949	-31.95906
411.162	24.93896
411.375	54.44846
411.588	69.20492
411.801	-6.67324
412.014	16.50851
412.227	31.26204
412.44	27.04663
412.653	1.75615
412.865	-40.38689
413.078	71.31307
413.291	12.29343
413.504	39.69314
413.717	5.97099
413.93	27.04663
414.143	22.83131
414.356	31.26204
414.568	-29.85205
414.781	-48.81431
414.994	-6.67324
415.207	58.66448
415.42	-44.60065
415.632	50.23254
415.845	31.26204
416.058	18.61609
416.271	-27.74501
416.483	54.44846
416.696	33.36978
416.909	-46.70749
417.121	3.86356
417.334	37.58533
417.547	24.93896
417.759	67.09678
417.972	60.77252
418.185	-2.45859
418.397	54.44846
418.61	-27.74501
418.823	73.42125
419.035	35.47754
419.248	73.42125
419.46	100.82962
419.673	-8.78052
419.885	22.83131
420.098	-8.78052
420.311	14.40096
420.523	-0.35123
420.736	18.61609
420.948	10.18593
421.161	-10.88778
421.373	35.47754
421.586	16.50851
421.798	-15.10224
422.01	8.07845
422.223	-31.95906
422.435	67.09678
422.648	14.40096
422.86	35.47754
423.073	69.20492
423.285	56.55646
423.497	31.26204
423.71	-17.20943
423.922	-27.74501
424.134	-10.88778
424.347	-48.81431
424.559	16.50851
424.771	-27.74501
424.984	31.26204
425.196	-69.8811
425.408	-107.79484
425.621	16.50851
425.833	-23.53085
426.045	39.69314
426.257	35.47754
426.47	24.93896
426.682	62.88058
426.894	-59.34802
427.106	10.18593
427.318	14.40096
427.531	14.40096
427.743	-27.74501
427.955	81.85419
428.167	58.66448
428.379	5.97099
428.591	24.93896
428.804	77.63768
429.016	107.15516
429.228	96.6127
429.44	18.61609
429.652	100.82962
429.864	62.88058
430.076	81.85419
430.288	-27.74501
430.5	-19.31659
430.712	56.55646
430.924	-2.45859
431.136	111.37229
431.348	16.50851
431.56	5.97099
431.772	5.97099
431.984	52.34049
432.196	-21.42373
432.408	73.42125
432.62	62.88058
432.832	50.23254
433.044	35.47754
433.256	39.69314
433.468	56.55646
433.679	35.47754
433.891	24.93896
434.103	33.36978
434.315	5.97099
434.527	109.26371
434.739	39.69314
434.95	-27.74501
435.162	52.34049
435.374	39.69314
435.586	43.90883
435.798	-8.78052
436.009	31.26204
436.221	73.42125
436.433	22.83131
436.645	18.61609
436.856	-15.10224
437.068	73.42125
437.28	-2.45859
437.491	46.01671
437.703	73.42125
437.915	-65.66794
438.126	18.61609
438.338	73.42125
438.55	18.61609
438.761	8.07845
438.973	64.98867
439.184	60.77252
439.396	-17.20943
439.608	24.93896
439.819	14.40096
440.031	39.69314
440.242	50.23254
440.454	16.50851
440.665	-4.56592
440.877	-69.8811
441.088	-8.78052
441.3	22.83131
441.511	39.69314
441.723	50.23254
441.934	56.55646
442.146	56.55646
442.357	102.93811
442.569	48.12461
442.78	39.69314
442.991	1.75615
443.203	22.83131
443.414	-48.81431
443.626	48.12461
443.837	-27.74501
444.048	56.55646
444.26	31.26204
444.471	5.97099
444.682	64.98867
444.894	31.26204
445.105	64.98867
445.316	-0.35123
445.528	77.63768
445.739	18.61609
445.95	52.34049
446.161	52.34049
446.373	-42.49378
446.584	-8.78052
446.795	27.04663
447.006	105.04662
447.217	35.47754
447.429	5.97099
447.64	79.74592
447.851	16.50851
448.062	14.40096
448.273	105.04662
448.484	126.13296
448.695	22.83131
448.907	-17.20943
449.118	-10.88778
449.329	54.44846
449.54	39.69314
449.751	62.88058
449.962	64.98867
450.173	48.12461
450.384	31.26204
450.595	22.83131
450.806	33.36978
451.017	58.66448
451.228	52.34049
451.439	94.50427
451.65	27.04663
451.861	50.23254
452.072	58.66448
452.283	92.39587
452.494	-6.67324
452.705	64.98867
452.915	-44.60065
453.126	52.34049
453.337	-42.49378
453.548	5.97099
453.759	-10.88778
453.97	33.36978
454.181	22.83131
454.391	27.04663
454.602	48.12461
454.813	56.55646
455.024	31.26204
455.235	75.52945
455.445	56.55646
455.656	39.69314
455.867	75.52945
456.078	64.98867
456.288	69.20492
456.499	22.83131
456.71	-19.31659
456.921	52.34049
457.131	35.47754
457.342	86.0708
457.553	-19.31659
457.763	-10.88778
457.974	-27.74501
458.184	27.04663
458.395	3.86356
458.606	149.33043
458.816	88.17913
459.027	69.20492
459.237	48.12461
459.448	64.98867
459.659	109.26371
459.869	-0.35123
460.08	22.83131
460.29	39.69314
460.501	39.69314
460.711	8.07845
460.922	56.55646
461.132	60.77252
461.343	50.23254
461.553	50.23254
461.764	109.26371
461.974	14.40096
462.184	22.83131
462.395	43.90883
462.605	52.34049
462.816	41.80097
463.026	86.0708
463.236	88.17913
463.447	5.97099
463.657	58.66448
463.867	20.72369
464.078	81.85419
464.288	56.55646
464.498	90.28749
464.709	48.12461
464.919	35.47754
465.129	-74.09415
465.339	22.83131
465.55	-6.67324
465.76	56.55646
465.97	67.09678
466.18	-2.45859
466.391	10.18593
466.601	31.26204
466.811	39.69314
467.021	3.86356
467.231	-31.95906
467.441	31.26204
467.651	73.42125
467.862	20.72369
468.072	48.12461
468.282	56.55646
468.492	83.96248
468.702	43.90883
468.912	50.23254
469.122	52.34049
469.332	-25.63794
469.542	88.17913
469.752	90.28749
469.962	-42.49378
470.172	60.77252
470.382	43.90883
470.592	60.77252
470.802	27.04663
471.012	48.12461
471.222	46.01671
471.432	69.20492
471.642	75.52945
471.852	35.47754
472.062	90.28749
472.272	58.66448
472.482	-19.31659
472.691	92.39587
472.901	81.85419
473.111	58.66448
473.321	33.36978
473.531	18.61609
473.741	29.15432
473.95	12.29343
474.16	92.39587
474.37	31.26204
474.58	10.18593
474.79	107.15516
474.999	-36.17303
475.209	52.34049
475.419	-36.17303
475.628	98.72115
475.838	1.75615
476.048	12.29343
476.258	52.34049
476.467	73.42125
476.677	-15.10224
476.886	41.80097
477.096	83.96248
477.306	18.61609
477.515	69.20492
477.725	75.52945
477.935	56.55646
478.144	5.97099
478.354	22.83131
478.563	-4.56592
478.773	20.72369
478.982	107.15516
479.192	73.42125
479.401	22.83131
479.611	8.07845
479.82	43.90883
480.03	18.61609
480.239	60.77252
480.449	121.91552
480.658	31.26204
480.868	109.26371
481.077	35.47754
481.287	96.6127
481.496	43.90883
481.705	92.39587
481.915	69.20492
482.124	62.88058
482.333	46.01671
482.543	102.93811
482.752	35.47754
482.961	96.6127
483.171	48.12461
483.38	134.5681
483.589	67.09678
483.799	117.69816
484.008	60.77252
484.217	48.12461
484.426	88.17913
484.636	20.72369
484.845	16.50851
485.054	64.98867
485.263	64.98867
485.472	46.01671
485.682	77.63768
485.891	105.04662
486.1	18.61609
486.309	102.93811
486.518	41.80097
486.727	39.69314
486.936	56.55646
487.146	58.66448
487.355	105.04662
487.564	24.93896
487.773	159.87558
487.982	100.82962
488.191	69.20492
488.4	102.93811
488.609	64.98867
488.818	90.28749
489.027	81.85419
489.236	58.66448
489.445	48.12461
489.654	98.72115
489.863	50.23254
490.072	69.20492
490.281	56.55646
490.49	73.42125
490.698	132.45929
490.907	64.98867
491.116	58.66448
491.325	174.63967
491.534	96.6127
491.743	12.29343
491.952	14.40096
492.16	81.85419
492.369	100.82962
492.578	29.15432
492.787	168.31207
492.996	22.83131
493.204	77.63768
493.413	96.6127
493.622	130.35049
493.831	24.93896
494.039	100.82962
494.248	56.55646
494.457	50.23254
494.665	56.55646
494.874	96.6127
495.083	98.72115
495.291	64.98867
495.5	109.26371
495.709	58.66448
495.917	64.98867
496.126	172.53045
496.335	115.58952
496.543	140.89469
496.752	96.6127
496.96	109.26371
497.169	132.45929
497.377	98.72115
497.586	96.6127
497.794	67.09678
498.003	22.83131
498.211	187.2954
498.42	176.7489
498.628	94.50427
498.837	124.02423
499.045	130.35049
499.254	126.13296
499.462	117.69816
499.671	56.55646
499.879	100.82962
500.087	83.96248
500.296	124.02423
500.504	105.04662
500.713	180.96744
500.921	172.53045
501.129	124.02423
501.338	8.07845
501.546	149.33043
501.754	24.93896
501.962	98.72115
502.171	100.82962
502.379	100.82962
502.587	124.02423
502.795	210.49949
503.004	143.00359
503.212	107.15516
503.42	98.72115
503.628	157.7665
503.837	126.13296
504.045	31.26204
504.253	159.87558
504.461	90.28749
504.669	174.63967
504.877	189.40476
505.085	153.54842
505.294	22.83131
505.502	170.42125
505.71	117.69816
505.918	109.26371
506.126	143.00359
506.334	126.13296
506.542	199.95188
506.75	223.15728
506.958	176.7489
507.166	176.7489
507.374	92.39587
507.582	208.38993
507.79	100.82962
507.998	210.49949
508.206	94.50427
508.414	199.95188
508.622	143.00359
508.83	126.13296
509.037	132.45929
509.245	134.5681
509.453	121.91552
509.661	242.1453
509.869	170.42125
510.077	202.06136
510.285	195.73297
510.492	187.2954
510.7	178.85816
510.908	233.70599
511.116	81.85419
511.324	218.93794
511.531	187.2954
511.739	246.36508
511.947	199.95188
512.155	227.37671
512.362	229.48645
512.57	195.73297
512.778	185.18606
512.985	149.33043
513.193	210.49949
513.401	208.38993
513.608	185.18606
513.816	178.85816
514.024	134.5681
514.231	237.92561
514.439	140.89469
514.646	225.26699
514.854	237.92561
515.061	187.2954
515.269	227.37671
515.477	216.8283
515.684	275.90563
515.892	259.02486
516.099	208.38993
516.307	199.95188
516.514	206.28038
516.722	303.33942
516.929	280.12601
517.136	261.13489
517.344	259.02486
517.551	225.26699
517.759	218.93794
517.966	318.11274
518.173	208.38993
518.381	259.02486
518.588	309.67074
518.796	318.11274
519.003	227.37671
519.21	269.5752
519.418	227.37671
519.625	294.89792
519.832	303.33942
520.039	282.23623
520.247	250.58493
520.454	284.34646
520.661	307.56028
520.868	252.69488
521.076	265.355
521.283	248.47499
521.49	311.78121
521.697	202.06136
521.904	334.99761
522.112	326.55503
522.319	345.55122
522.526	324.44443
522.733	286.45672
522.94	284.34646
523.147	351.8836
523.354	318.11274
523.561	301.22902
523.768	250.58493
523.975	347.662
524.183	237.92561
524.39	309.67074
524.597	351.8836
524.804	332.88694
525.011	381.43673
525.218	362.43791
525.425	309.67074
525.632	427.88395
525.838	364.54882
526.045	400.43691
526.252	351.8836
526.459	413.10444
526.666	375.10364
526.873	427.88395
527.08	351.8836
527.287	497.56906
527.494	402.54813
527.701	372.99264
527.907	410.99314
528.114	448.99889
528.321	470.11538
528.528	415.21575
528.735	406.7706
528.941	444.77578
529.148	442.66424
529.355	413.10444
529.562	440.55273
529.768	527.13733
529.975	493.34525
530.182	584.16957
530.388	444.77578
530.595	579.94462
530.802	463.78027
531.008	579.94462
531.215	478.56239
531.422	489.12151
531.628	503.90488
531.835	582.05709
532.042	438.44123
532.248	497.56906
532.455	609.52034
532.661	520.80104
532.868	448.99889
533.074	489.12151
533.281	518.68897
533.487	617.971
533.694	480.67419
533.9	651.77565
534.107	463.78027
534.313	672.90511
534.52	575.71972
534.726	596.84472
534.933	541.92251
535.139	565.15772
535.345	613.74564
535.552	622.19641
535.758	740.52702
535.965	658.11436
536.171	573.6073
536.377	708.82785
536.584	664.45318
536.79	677.13115
536.996	611.63298
537.203	672.90511
537.409	681.35723
537.615	656.00144
537.821	571.49488
538.028	710.94105
538.234	757.43422
538.44	645.43704
538.646	641.21136
538.853	867.34612
539.059	732.07367
539.265	768.00155
539.471	651.77565
539.677	816.61443
539.883	664.45318
540.09	841.97964
540.296	723.62049
540.502	787.02337
540.708	681.35723
540.914	911.74035
541.12	738.41367
541.326	744.75376
541.532	645.43704
541.738	852.54886
541.944	774.34207
542.15	903.28403
542.356	719.39397
542.562	863.11829
542.768	850.435
542.974	822.95561
543.18	768.00155
543.386	964.59503
543.592	911.74035
543.798	901.16997
544.004	934.99584
544.21	825.06936
544.415	833.52443
544.621	1008.99632
544.827	837.75202
545.033	901.16997
545.239	827.18311
545.445	998.42433
545.651	888.48578
545.856	1057.62946
546.062	981.50947
546.268	1011.11074
546.474	892.71381
546.679	949.79526
546.885	1011.11074
547.091	1095.69222
547.297	934.99584
547.502	951.90949
547.708	926.53919
547.914	1036.48424
548.119	1074.54603
548.325	1049.1713
548.531	973.05219
548.736	1036.48424
548.942	1055.51491
549.147	945.56682
549.353	1011.11074
549.559	1097.80687
549.764	1089.34831
549.97	1150.67455
550.175	1015.3396
550.381	1121.0683
550.586	1133.75658
550.792	1095.69222
550.997	1104.15084
551.203	1317.7512
551.408	1201.42996
551.614	1233.15312
551.819	1222.57865
552.025	1343.13127
552.23	1224.69354
552.435	1154.90408
552.641	1239.49783
552.846	1250.07242
553.052	1239.49783
553.257	1281.79656
553.462	1192.97058
553.668	1508.10463
553.873	1205.65967
554.078	1393.89199
554.283	1250.07242
554.489	1332.55621
554.694	1188.74091
554.899	1298.71631
555.105	1302.94628
555.31	1366.39652
555.515	1305.06126
555.72	1552.52034
555.925	1389.6619
556.131	1442.53809
556.336	1383.31679
556.541	1497.52941
556.746	1317.7512
556.951	1419.27253
557.156	1501.7595
557.361	1510.21968
557.567	1393.89199
557.772	1315.63621
557.977	1461.57356
558.182	1459.45851
558.387	1434.07789
558.592	1453.11335
558.797	1552.52034
559.002	1552.52034
559.207	1429.84778
559.412	1586.3605
559.617	1495.41436
559.822	1662.49913
560.027	1434.07789
560.232	1573.67049
560.437	1529.25502
560.642	1611.74035
560.847	1586.3605
561.051	1611.74035
561.256	1366.39652
561.461	1797.84749
561.666	1611.74035
561.871	1774.58555
562.076	1503.87455
562.281	1818.99427
562.485	1571.55548
562.69	1673.07369
562.895	1590.5905
563.1	1734.40471
563.305	1599.05046
563.509	1774.58555
563.714	1713.25638
563.919	1928.94978
564.123	1711.14153
564.328	1740.74914
564.533	1622.3152
564.737	1683.64819
564.942	1666.72896
565.147	1867.63013
565.351	1804.19157
565.556	1897.23328
565.761	1867.63013
565.965	1922.60658
566.17	1681.53329
566.374	1914.1489
566.579	1755.55269
566.784	1825.33822
566.988	1717.48608
567.193	1882.43183
567.397	1988.15042
567.602	2108.65012
567.806	1793.61808
568.011	1998.72145
568.215	2013.52063
568.42	2051.57414
568.624	1886.66085
568.828	2047.34608
569.033	1799.96219
569.237	1958.55069
569.442	1899.34776
569.646	2093.85316
569.85	1960.665
570.055	2146.69771
570.259	1882.43183
570.463	2153.03873
570.668	2051.57414
570.872	2072.71401
571.076	2019.86303
571.281	2172.06135
571.485	2007.17816
571.689	2307.31315
571.893	2049.46012
572.098	2157.26603
572.302	2013.52063
572.506	2224.8984
572.71	2079.05583
572.914	2199.53728
573.119	1967.00788
573.323	2237.57849
573.527	2203.76422
573.731	2110.76394
573.935	2138.24291
574.139	2398.16383
574.343	1998.72145
574.547	2427.73904
574.751	2229.12513
574.955	2188.96978
575.159	2309.42617
575.364	2343.23306
575.568	2064.25815
575.772	2262.93771
575.976	2169.94776
576.18	2341.1202
576.383	2398.16383
576.587	2552.35392
576.791	2224.8984
576.995	2404.50155
577.199	2345.34591
577.403	2645.26067
577.607	2393.93863
577.811	2594.58717
578.015	2381.26278
578.219	2446.75059
578.422	2349.57157
578.626	2596.69871
578.83	2360.13556
579.034	2712.81408
579.238	2531.23553
579.442	2668.48362
579.645	2484.77103
579.849	2689.59407
580.053	2541.79487
580.257	2609.36767
580.46	2465.76125
580.664	2809.89856
580.868	2503.7799
581.071	2630.48163
581.275	2522.78785
