Data from Scatter_Coeff_Baseline_USB4F045381__20__0020.txt Node

Date: Thu Feb 13 19:19:53 EST 2025
User: mmckonesweet
Spectrometer: USB4F04538
Trigger mode: 4
Integration Time (sec): 2.400000E-3
Scans to average: 1
Electric dark correction enabled: true
Nonlinearity correction enabled: true
Boxcar width: 0
XAxis mode: Wavelengths
Number of Pixels in Spectrum: 3648
>>>>>Begin Spectral Data<<<<<
345.52	75.35377
345.736	75.35377
345.952	75.35377
346.168	12.11781
346.384	-59.52357
346.6	-103.75813
346.816	-8.95613
347.032	-59.52357
347.248	33.19413
347.464	33.19413
347.68	37.40968
347.896	37.40968
348.112	-25.81353
348.328	16.33288
348.544	22.65567
348.76	85.8951
348.975	-67.95008
349.191	-0.52684
349.407	5.79537
349.623	35.30189
349.839	64.813
350.055	-13.17063
350.27	-42.66935
350.486	-51.09666
350.702	-42.66935
350.918	22.65567
351.133	-82.69548
351.349	-80.58907
351.565	-17.38502
351.781	7.90283
351.996	7.90283
352.212	-8.95613
352.428	43.73317
352.644	-13.17063
352.859	-38.45555
353.075	16.33288
353.291	-8.95613
353.506	-21.59933
353.722	-17.38502
353.938	5.79537
354.153	71.13739
354.369	1.58054
354.584	69.02924
354.8	-25.81353
355.016	-80.58907
355.231	-0.52684
355.447	-51.09666
355.662	1.58054
355.878	24.76332
356.093	-101.65198
356.309	18.44046
356.524	-25.81353
356.74	50.05688
356.955	-59.52357
357.171	7.90283
357.386	7.90283
357.602	-4.74153
357.817	92.22017
358.033	-40.56246
358.248	33.19413
358.464	66.92111
358.679	-8.95613
358.895	-76.37618
359.11	-8.95613
359.325	-2.6342
359.541	-38.45555
359.756	26.87099
359.972	35.30189
360.187	20.54805
360.402	37.40968
360.618	24.76332
360.833	12.11781
361.048	12.11781
361.264	37.40968
361.479	28.97868
361.694	5.79537
361.909	66.92111
362.125	-8.95613
362.34	26.87099
362.555	-8.95613
362.77	-57.41689
362.986	-19.49219
363.201	22.65567
363.416	-124.81816
363.631	22.65567
363.847	-8.95613
364.062	20.54805
364.277	92.22017
364.492	-23.70644
364.707	-13.17063
364.922	62.70491
365.138	26.87099
365.353	3.68794
365.568	41.62532
365.783	-57.41689
365.998	-51.09666
366.213	41.62532
366.428	-38.45555
366.643	47.94895
366.858	-57.41689
367.073	-55.31017
367.288	12.11781
367.503	45.84105
367.718	-0.52684
367.933	75.35377
368.148	43.73317
368.363	-8.95613
368.578	-84.80186
368.793	39.51749
369.008	-0.52684
369.223	22.65567
369.438	-13.17063
369.653	16.33288
369.868	-6.84884
370.083	-4.74153
370.298	-32.13465
370.513	-4.74153
370.728	-13.17063
370.943	-6.84884
371.157	-4.74153
371.372	-8.95613
371.587	-30.02763
371.802	-74.26969
372.017	-51.09666
372.232	-4.74153
372.446	-0.52684
372.661	37.40968
372.876	-11.06339
373.091	-19.49219
373.306	-32.13465
373.52	-32.13465
373.735	10.01031
373.95	3.68794
374.165	-67.95008
374.379	43.73317
374.594	7.90283
374.809	39.51749
375.023	71.13739
375.238	10.01031
375.453	-25.81353
375.667	24.76332
375.882	-34.24164
376.097	-8.95613
376.311	94.32857
376.526	-55.31017
376.741	-6.84884
376.955	33.19413
377.17	-13.17063
377.384	-25.81353
377.599	16.33288
377.813	-23.70644
378.028	-34.24164
378.242	100.65391
378.457	-17.38502
378.672	41.62532
378.886	43.73317
379.101	-34.24164
379.315	24.76332
379.53	-25.81353
379.744	-17.38502
379.958	-6.84884
380.173	18.44046
380.387	60.59685
380.602	-67.95008
380.816	-34.24164
381.031	-36.3486
381.245	7.90283
381.459	5.79537
381.674	-40.56246
381.888	-17.38502
382.103	-30.02763
382.317	24.76332
382.531	37.40968
382.746	-4.74153
382.96	60.59685
383.174	-51.09666
383.388	35.30189
383.603	-0.52684
383.817	14.22533
384.031	-15.27784
384.246	5.79537
384.46	24.76332
384.674	-8.95613
384.888	-57.41689
385.103	33.19413
385.317	-53.20343
385.531	35.30189
385.745	-21.59933
385.959	37.40968
386.174	-4.74153
386.388	3.68794
386.602	-19.49219
386.816	62.70491
387.03	-118.50043
387.244	10.01031
387.458	-6.84884
387.672	-55.31017
387.887	85.8951
388.101	-59.52357
388.315	16.33288
388.529	-38.45555
388.743	-30.02763
388.957	1.58054
389.171	12.11781
389.385	54.2728
389.599	-23.70644
389.813	-25.81353
390.027	-42.66935
390.241	-42.66935
390.455	20.54805
390.669	43.73317
390.883	-13.17063
391.097	-25.81353
391.311	-13.17063
391.525	16.33288
391.738	-13.17063
391.952	10.01031
392.166	-8.95613
392.38	7.90283
392.594	24.76332
392.808	-19.49219
393.022	20.54805
393.236	16.33288
393.449	16.33288
393.663	-44.77622
393.877	14.22533
394.091	41.62532
394.305	-0.52684
394.518	-15.27784
394.732	-32.13465
394.946	1.58054
395.16	26.87099
395.373	-76.37618
395.587	-19.49219
395.801	-4.74153
396.015	-55.31017
396.228	7.90283
396.442	-0.52684
396.656	50.05688
396.869	58.48881
397.083	3.68794
397.297	1.58054
397.51	16.33288
397.724	12.11781
397.938	26.87099
398.151	-57.41689
398.365	-0.52684
398.578	-34.24164
398.792	-21.59933
399.005	-65.84349
399.219	-2.6342
399.433	-40.56246
399.646	-23.70644
399.86	24.76332
400.073	3.68794
400.287	18.44046
400.5	-23.70644
400.714	-21.59933
400.927	-59.52357
401.141	12.11781
401.354	-23.70644
401.567	7.90283
401.781	-95.33338
401.994	14.22533
402.208	45.84105
402.421	24.76332
402.635	-6.84884
402.848	-55.31017
403.061	1.58054
403.275	94.32857
403.488	7.90283
403.701	7.90283
403.915	-15.27784
404.128	56.38079
404.341	-17.38502
404.555	3.68794
404.768	75.35377
404.981	-51.09666
405.195	28.97868
405.408	-63.73688
405.621	-25.81353
405.834	-8.95613
406.048	123.8485
406.261	-25.81353
406.474	16.33288
406.687	-46.88306
406.9	-17.38502
407.114	75.35377
407.327	-51.09666
407.54	12.11781
407.753	24.76332
407.966	5.79537
408.179	75.35377
408.392	22.65567
408.605	14.22533
408.819	58.48881
409.032	-55.31017
409.245	-0.52684
409.458	-6.84884
409.671	-34.24164
409.884	-42.66935
410.097	-6.84884
410.31	7.90283
410.523	41.62532
410.736	1.58054
410.949	24.76332
411.162	24.76332
411.375	-25.81353
411.588	66.92111
411.801	-17.38502
412.014	-17.38502
412.227	26.87099
412.44	16.33288
412.653	47.94895
412.865	1.58054
413.078	-6.84884
413.291	-74.26969
413.504	-25.81353
413.717	-17.38502
413.93	75.35377
414.143	28.97868
414.356	-57.41689
414.568	3.68794
414.781	-0.52684
414.994	-55.31017
415.207	28.97868
415.42	-42.66935
415.632	88.00344
415.845	-48.98987
416.058	-65.84349
416.271	98.54544
416.483	-13.17063
416.696	7.90283
416.909	-0.52684
417.121	-6.84884
417.334	1.58054
417.547	12.11781
417.759	-25.81353
417.972	3.68794
418.185	-19.49219
418.397	16.33288
418.61	3.68794
418.823	-25.81353
419.035	-2.6342
419.248	-6.84884
419.46	28.97868
419.673	58.48881
419.885	50.05688
420.098	18.44046
420.311	-48.98987
420.523	-72.16318
420.736	-48.98987
420.948	45.84105
421.161	16.33288
421.373	-19.49219
421.586	-59.52357
421.798	56.38079
422.01	-17.38502
422.223	-57.41689
422.435	16.33288
422.648	45.84105
422.86	-32.13465
423.073	37.40968
423.285	41.62532
423.497	88.00344
423.71	-46.88306
423.922	-21.59933
424.134	-30.02763
424.347	-38.45555
424.559	-6.84884
424.771	47.94895
424.984	-21.59933
425.196	26.87099
425.408	-63.73688
425.621	22.65567
425.833	-15.27784
426.045	56.38079
426.257	43.73317
426.47	-15.27784
426.682	41.62532
426.894	-34.24164
427.106	-67.95008
427.318	-32.13465
427.531	24.76332
427.743	26.87099
427.955	-51.09666
428.167	33.19413
428.379	-8.95613
428.591	43.73317
428.804	-51.09666
429.016	-40.56246
429.228	98.54544
429.44	-17.38502
429.652	-13.17063
429.864	-0.52684
430.076	-63.73688
430.288	-17.38502
430.5	-8.95613
430.712	-89.01455
430.924	-8.95613
431.136	-13.17063
431.348	-78.48264
431.56	41.62532
431.772	-2.6342
431.984	-15.27784
432.196	-25.81353
432.408	-17.38502
432.62	-124.81816
432.832	-17.38502
433.044	-21.59933
433.256	-65.84349
433.468	-36.3486
433.679	7.90283
433.891	-42.66935
434.103	-6.84884
434.315	45.84105
434.527	50.05688
434.739	12.11781
434.95	45.84105
435.162	-17.38502
435.374	50.05688
435.586	16.33288
435.798	16.33288
436.009	-40.56246
436.221	-15.27784
436.433	-8.95613
436.645	10.01031
436.856	3.68794
437.068	1.58054
437.28	7.90283
437.491	-76.37618
437.703	18.44046
437.915	75.35377
438.126	-34.24164
438.338	50.05688
438.55	-17.38502
438.761	58.48881
438.973	-15.27784
439.184	-30.02763
439.396	-30.02763
439.608	-17.38502
439.819	50.05688
440.031	33.19413
440.242	-25.81353
440.454	26.87099
440.665	5.79537
440.877	35.30189
441.088	-32.13465
441.3	-8.95613
441.511	45.84105
441.723	-4.74153
441.934	-0.52684
442.146	-15.27784
442.357	-2.6342
442.569	28.97868
442.78	20.54805
442.991	-17.38502
443.203	24.76332
443.414	-23.70644
443.626	69.02924
443.837	-80.58907
444.048	-23.70644
444.26	-11.06339
444.471	16.33288
444.682	-74.26969
444.894	-0.52684
445.105	24.76332
445.316	-4.74153
445.528	7.90283
445.739	10.01031
445.95	-0.52684
446.161	-6.84884
446.373	-21.59933
446.584	10.01031
446.795	-19.49219
447.006	-57.41689
447.217	69.02924
447.429	-4.74153
447.64	-25.81353
447.851	-30.02763
448.062	-2.6342
448.273	-59.52357
448.484	-55.31017
448.695	18.44046
448.907	43.73317
449.118	12.11781
449.329	16.33288
449.54	12.11781
449.751	-42.66935
449.962	33.19413
450.173	20.54805
450.384	1.58054
450.595	-46.88306
450.806	-38.45555
451.017	16.33288
451.228	-8.95613
451.439	24.76332
451.65	1.58054
451.861	41.62532
452.072	-13.17063
452.283	16.33288
452.494	-80.58907
452.705	-95.33338
452.915	-2.6342
453.126	-61.63024
453.337	-40.56246
453.548	-40.56246
453.759	-17.38502
453.97	-23.70644
454.181	-13.17063
454.391	71.13739
454.602	31.08639
454.813	-51.09666
455.024	-15.27784
455.235	-8.95613
455.445	24.76332
455.656	35.30189
455.867	-21.59933
456.078	-0.52684
456.288	-63.73688
456.499	69.02924
456.71	5.79537
456.921	-36.3486
457.131	58.48881
457.342	-8.95613
457.553	-80.58907
457.763	-25.81353
457.974	-4.74153
458.184	-13.17063
458.395	-42.66935
458.606	-42.66935
458.816	-0.52684
459.027	7.90283
459.237	-15.27784
459.448	41.62532
459.659	-40.56246
459.869	20.54805
460.08	35.30189
460.29	-2.6342
460.501	3.68794
460.711	24.76332
460.922	-4.74153
461.132	22.65567
461.343	-0.52684
461.553	-15.27784
461.764	-0.52684
461.974	-8.95613
462.184	12.11781
462.395	-17.38502
462.605	54.2728
462.816	54.2728
463.026	1.58054
463.236	79.57023
463.447	43.73317
463.657	-4.74153
463.867	10.01031
464.078	-2.6342
464.288	1.58054
464.498	-34.24164
464.709	3.68794
464.919	58.48881
465.129	-17.38502
465.339	43.73317
465.55	45.84105
465.76	-2.6342
465.97	-17.38502
466.18	-74.26969
466.391	41.62532
466.601	-70.05664
466.811	45.84105
467.021	18.44046
467.231	-25.81353
467.441	-51.09666
467.651	41.62532
467.862	35.30189
468.072	-30.02763
468.282	20.54805
468.492	-6.84884
468.702	7.90283
468.912	-48.98987
469.122	22.65567
469.332	1.58054
469.542	3.68794
469.752	100.65391
469.962	-8.95613
470.172	-0.52684
470.382	22.65567
470.592	7.90283
470.802	24.76332
471.012	-40.56246
471.222	18.44046
471.432	-4.74153
471.642	-17.38502
471.852	12.11781
472.062	18.44046
472.272	-34.24164
472.482	22.65567
472.691	37.40968
472.901	79.57023
473.111	-0.52684
473.321	54.2728
473.531	60.59685
473.741	31.08639
473.95	12.11781
474.16	58.48881
474.37	-6.84884
474.58	28.97868
474.79	20.54805
474.999	-25.81353
475.209	28.97868
475.419	-15.27784
475.628	-13.17063
475.838	-6.84884
476.048	-70.05664
476.258	35.30189
476.467	-42.66935
476.677	-57.41689
476.886	37.40968
477.096	-32.13465
477.306	50.05688
477.515	66.92111
477.725	10.01031
477.935	54.2728
478.144	-25.81353
478.354	-8.95613
478.563	-34.24164
478.773	-13.17063
478.982	-67.95008
479.192	-46.88306
479.401	28.97868
479.611	-44.77622
479.82	96.437
480.03	-34.24164
480.239	43.73317
480.449	-44.77622
480.658	12.11781
480.868	43.73317
481.077	14.22533
481.287	-107.97035
481.496	-8.95613
481.705	1.58054
481.915	83.78679
482.124	-17.38502
482.333	16.33288
482.543	-48.98987
482.752	43.73317
482.961	24.76332
483.171	-21.59933
483.38	-34.24164
483.589	90.11179
483.799	18.44046
484.008	-76.37618
484.217	-63.73688
484.426	62.70491
484.636	-51.09666
484.845	-55.31017
485.054	-8.95613
485.263	50.05688
485.472	-2.6342
485.682	-32.13465
485.891	-23.70644
486.1	-30.02763
486.309	-19.49219
486.518	-44.77622
486.727	24.76332
486.936	10.01031
487.146	5.79537
487.355	-0.52684
487.564	16.33288
487.773	-34.24164
487.982	7.90283
488.191	-4.74153
488.4	-59.52357
488.609	3.68794
488.818	33.19413
489.027	41.62532
489.236	-65.84349
489.445	-38.45555
489.654	83.78679
489.863	18.44046
490.072	-4.74153
490.281	-4.74153
490.49	33.19413
490.698	45.84105
490.907	35.30189
491.116	-15.27784
491.325	-42.66935
491.534	45.84105
491.743	33.19413
491.952	-67.95008
492.16	24.76332
492.369	-23.70644
492.578	-0.52684
492.787	14.22533
492.996	-23.70644
493.204	-93.22713
493.413	58.48881
493.622	-15.27784
493.831	39.51749
494.039	-13.17063
494.248	16.33288
494.457	-44.77622
494.665	-27.92059
494.874	10.01031
495.083	-17.38502
495.291	10.01031
495.5	-46.88306
495.709	24.76332
495.917	33.19413
496.126	-15.27784
496.335	-8.95613
496.543	33.19413
496.752	-27.92059
496.96	66.92111
497.169	-65.84349
497.377	79.57023
497.586	12.11781
497.794	-48.98987
498.003	-8.95613
498.211	-0.52684
498.42	85.8951
498.628	35.30189
498.837	-74.26969
499.045	-27.92059
499.254	24.76332
499.462	16.33288
499.671	-8.95613
499.879	39.51749
500.087	3.68794
500.296	-0.52684
500.504	71.13739
500.713	-70.05664
500.921	37.40968
501.129	12.11781
501.338	-48.98987
501.546	-8.95613
501.754	-48.98987
501.962	28.97868
502.171	7.90283
502.379	16.33288
502.587	-11.06339
502.795	-30.02763
503.004	-11.06339
503.212	26.87099
503.42	-13.17063
503.628	-19.49219
503.837	-40.56246
504.045	-51.09666
504.253	-42.66935
504.461	16.33288
504.669	37.40968
504.877	-17.38502
505.085	62.70491
505.294	16.33288
505.502	1.58054
505.71	16.33288
505.918	-48.98987
506.126	-25.81353
506.334	-59.52357
506.542	-27.92059
506.75	54.2728
506.958	24.76332
507.166	37.40968
507.374	52.16483
507.582	-34.24164
507.79	45.84105
507.998	28.97868
508.206	18.44046
508.414	37.40968
508.622	-19.49219
508.83	-57.41689
509.037	75.35377
509.245	-38.45555
509.453	7.90283
509.661	-15.27784
509.869	-8.95613
510.077	-0.52684
510.285	1.58054
510.492	69.02924
510.7	-42.66935
510.908	-13.17063
511.116	18.44046
511.324	12.11781
511.531	-34.24164
511.739	10.01031
511.947	-0.52684
512.155	20.54805
512.362	22.65567
512.57	3.68794
512.778	-30.02763
512.985	-34.24164
513.193	-65.84349
513.401	12.11781
513.608	26.87099
513.816	-8.95613
514.024	-36.3486
514.231	31.08639
514.439	16.33288
514.646	-0.52684
514.854	-32.13465
515.061	77.46199
515.269	24.76332
515.477	-0.52684
515.684	-6.84884
515.892	-95.33338
516.099	24.76332
516.307	-0.52684
516.514	-23.70644
516.722	26.87099
516.929	47.94895
517.136	-25.81353
517.344	16.33288
517.551	26.87099
517.759	41.62532
517.966	-8.95613
518.173	35.30189
518.381	-2.6342
518.588	-38.45555
518.796	71.13739
519.003	-25.81353
519.21	20.54805
519.418	-67.95008
519.625	-8.95613
519.832	-38.45555
520.039	71.13739
520.247	-2.6342
520.454	37.40968
520.661	20.54805
520.868	26.87099
521.076	54.2728
521.283	33.19413
521.49	-13.17063
521.697	28.97868
521.904	-8.95613
522.112	-76.37618
522.319	-65.84349
522.526	58.48881
522.733	-13.17063
522.94	-0.52684
523.147	33.19413
523.354	-27.92059
523.561	26.87099
523.768	-51.09666
523.975	-34.24164
524.183	50.05688
524.39	7.90283
524.597	5.79537
524.804	58.48881
525.011	1.58054
525.218	16.33288
525.425	-32.13465
525.632	-13.17063
525.838	64.813
526.045	45.84105
526.252	-25.81353
526.459	28.97868
526.666	-42.66935
526.873	-0.52684
527.08	16.33288
527.287	-2.6342
527.494	62.70491
527.701	-4.74153
527.907	-15.27784
528.114	1.58054
528.321	83.78679
528.528	-38.45555
528.735	33.19413
528.941	73.24557
529.148	24.76332
529.355	-8.95613
529.562	7.90283
529.768	-82.69548
529.975	33.19413
530.182	16.33288
530.388	31.08639
530.595	-6.84884
530.802	-42.66935
531.008	-11.06339
531.215	-21.59933
531.422	16.33288
531.628	33.19413
531.835	-34.24164
532.042	10.01031
532.248	28.97868
532.455	-65.84349
532.661	-42.66935
532.868	-32.13465
533.074	88.00344
533.281	26.87099
533.487	-44.77622
533.694	96.437
533.9	16.33288
534.107	50.05688
534.313	16.33288
534.52	-13.17063
534.726	1.58054
534.933	109.088
535.139	18.44046
535.345	-38.45555
535.552	5.79537
535.758	31.08639
535.965	54.2728
536.171	-13.17063
536.377	33.19413
536.584	-84.80186
536.79	-2.6342
536.996	-15.27784
537.203	16.33288
537.409	45.84105
537.615	37.40968
537.821	-30.02763
538.028	-8.95613
538.234	-40.56246
538.44	-44.77622
538.646	47.94895
538.853	39.51749
539.059	-17.38502
539.265	-13.17063
539.471	-46.88306
539.677	-32.13465
539.883	-84.80186
540.09	92.22017
540.296	85.8951
540.502	33.19413
540.708	77.46199
540.914	-8.95613
541.12	41.62532
541.326	-17.38502
541.532	18.44046
541.738	20.54805
541.944	-34.24164
542.15	-17.38502
542.356	73.24557
542.562	12.11781
542.768	-30.02763
542.974	-15.27784
543.18	31.08639
543.386	-74.26969
543.592	24.76332
543.798	-27.92059
544.004	66.92111
544.21	24.76332
544.415	-76.37618
544.621	-6.84884
544.827	26.87099
545.033	-6.84884
545.239	-17.38502
545.445	-6.84884
545.651	90.11179
545.856	-32.13465
546.062	41.62532
546.268	20.54805
546.474	-51.09666
546.679	3.68794
546.885	1.58054
547.091	71.13739
547.297	-48.98987
547.502	33.19413
547.708	-51.09666
547.914	45.84105
548.119	20.54805
548.325	-40.56246
548.531	81.6785
548.736	-19.49219
548.942	-4.74153
549.147	-21.59933
549.353	5.79537
549.559	22.65567
549.764	37.40968
549.97	10.01031
550.175	1.58054
550.381	10.01031
550.586	-32.13465
550.792	-19.49219
550.997	45.84105
551.203	3.68794
551.408	3.68794
551.614	-25.81353
551.819	-19.49219
552.025	31.08639
552.23	-34.24164
552.435	-23.70644
552.641	-8.95613
552.846	-13.17063
553.052	-15.27784
553.257	26.87099
553.462	41.62532
553.668	-8.95613
553.873	-34.24164
554.078	41.62532
554.283	5.79537
554.489	-34.24164
554.694	18.44046
554.899	26.87099
555.105	-19.49219
555.31	-51.09666
555.515	-42.66935
555.72	-2.6342
555.925	37.40968
556.131	-13.17063
556.336	3.68794
556.541	-40.56246
556.746	-8.95613
556.951	-23.70644
557.156	-25.81353
557.361	-21.59933
557.567	45.84105
557.772	7.90283
557.977	-23.70644
558.182	-23.70644
558.387	81.6785
558.592	1.58054
558.797	-42.66935
559.002	-6.84884
559.207	-30.02763
559.412	79.57023
559.617	-55.31017
559.822	18.44046
560.027	-40.56246
560.232	41.62532
560.437	-51.09666
560.642	50.05688
560.847	-15.27784
561.051	-2.6342
561.256	3.68794
561.461	-76.37618
561.666	-0.52684
561.871	-34.24164
562.076	24.76332
562.281	-21.59933
562.485	60.59685
562.69	22.65567
562.895	-6.84884
563.1	20.54805
563.305	-6.84884
563.509	-40.56246
563.714	-27.92059
563.919	24.76332
564.123	-30.02763
564.328	31.08639
564.533	-23.70644
564.737	-8.95613
564.942	-51.09666
565.147	-0.52684
565.351	83.78679
565.556	-0.52684
565.761	-8.95613
565.965	-23.70644
566.17	33.19413
566.374	-21.59933
566.579	18.44046
566.784	24.76332
566.988	-11.06339
567.193	33.19413
567.397	50.05688
567.602	12.11781
567.806	12.11781
568.011	-25.81353
568.215	-34.24164
568.42	7.90283
568.624	-0.52684
568.828	73.24557
569.033	-25.81353
569.237	-13.17063
569.442	-25.81353
569.646	-0.52684
569.85	-0.52684
570.055	-13.17063
570.259	-21.59933
570.463	-21.59933
570.668	37.40968
570.872	18.44046
571.076	-0.52684
571.281	37.40968
571.485	-32.13465
571.689	-4.74153
571.893	-15.27784
572.098	60.59685
572.302	35.30189
572.506	26.87099
572.71	-21.59933
572.914	-101.65198
573.119	16.33288
573.323	-8.95613
573.527	54.2728
573.731	-13.17063
573.935	79.57023
574.139	-6.84884
574.343	-65.84349
574.547	-11.06339
574.751	-38.45555
574.955	-93.22713
575.159	-46.88306
575.364	24.76332
575.568	7.90283
575.772	66.92111
575.976	14.22533
576.18	41.62532
576.383	12.11781
576.587	20.54805
576.791	50.05688
576.995	5.79537
577.199	-72.16318
577.403	-30.02763
577.607	-0.52684
577.811	-8.95613
578.015	1.58054
578.219	-38.45555
578.422	-27.92059
578.626	-21.59933
578.83	10.01031
579.034	-93.22713
579.238	-40.56246
579.442	26.87099
579.645	18.44046
579.849	43.73317
580.053	-27.92059
580.257	-4.74153
580.46	18.44046
580.664	-6.84884
580.868	24.76332
581.071	10.01031
581.275	-32.13465
581.479	20.54805
581.682	7.90283
581.886	-51.09666
582.09	3.68794
582.293	16.33288
582.497	-0.52684
582.7	60.59685
582.904	-15.27784
583.107	-19.49219
583.311	-46.88306
583.515	26.87099
583.718	31.08639
583.922	24.76332
584.125	-44.77622
584.329	-40.56246
584.532	33.19413
584.735	1.58054
584.939	66.92111
