Data from Scatter_Coeff_Baseline_USB4F045381__45__0045.txt Node

Date: Thu Feb 13 19:31:06 EST 2025
User: mmckonesweet
Spectrometer: USB4F04538
Trigger mode: 4
Integration Time (sec): 2.400000E-3
Scans to average: 1
Electric dark correction enabled: true
Nonlinearity correction enabled: true
Boxcar width: 0
XAxis mode: Wavelengths
Number of Pixels in Spectrum: 3648
>>>>>Begin Spectral Data<<<<<
345.52	-8.0781
345.736	-8.0781
345.952	-8.0781
346.168	8.78094
346.384	-14.39983
346.6	-39.68458
346.816	-48.11204
347.032	40.39575
347.248	72.0158
347.464	21.42623
347.68	-3.86348
347.896	-24.93558
348.112	-16.50703
348.328	-20.72135
348.544	17.21104
348.76	6.67348
348.975	-3.86348
349.191	-16.50703
349.407	38.28793
349.623	12.99594
349.839	-8.0781
350.055	-46.00521
350.27	63.58328
350.486	-3.86348
350.702	4.56604
350.918	-3.86348
351.133	86.77357
351.349	-50.21884
351.565	-8.0781
351.781	23.53386
351.996	38.28793
352.212	-29.1497
352.428	19.31862
352.644	72.0158
352.859	31.96461
353.075	86.77357
353.291	-37.57766
353.506	-3.86348
353.722	-20.72135
353.938	12.99594
354.153	82.55695
354.369	-24.93558
354.584	46.71934
354.8	-20.72135
355.016	67.79949
355.231	57.25913
355.447	2.45862
355.662	31.96461
355.878	57.25913
356.093	15.10348
356.309	6.67348
356.524	-10.18537
356.74	-43.89836
356.955	101.53244
357.171	-27.04265
357.386	-71.28546
357.602	31.96461
357.817	-20.72135
358.033	-46.00521
358.248	-10.18537
358.464	25.64151
358.679	78.34042
358.895	34.07236
359.11	-22.82848
359.325	-3.86348
359.541	-22.82848
359.756	23.53386
359.972	55.15113
360.187	4.56604
360.402	-54.43236
360.618	38.28793
360.833	-52.32561
361.048	25.64151
361.264	17.21104
361.479	21.42623
361.694	-41.79148
361.909	10.88843
362.125	34.07236
362.34	23.53386
362.555	4.56604
362.77	4.56604
362.986	-3.86348
363.201	21.42623
363.416	48.82725
363.631	0.35123
363.847	38.28793
364.062	-10.18537
364.277	69.90763
364.492	-52.32561
364.707	-37.57766
364.922	4.56604
365.138	0.35123
365.353	17.21104
365.568	31.96461
365.783	29.85689
365.998	76.23219
366.213	4.56604
366.428	67.79949
366.643	-3.86348
366.858	12.99594
367.073	10.88843
367.288	29.85689
367.503	-24.93558
367.718	-1.75614
367.933	27.74919
368.148	25.64151
368.363	17.21104
368.578	-3.86348
368.793	55.15113
369.008	21.42623
369.223	-50.21884
369.438	65.69137
369.653	-1.75614
369.868	40.39575
370.083	-52.32561
370.298	50.93519
370.513	67.79949
370.728	25.64151
370.943	34.07236
371.157	-58.64579
371.372	78.34042
371.587	21.42623
371.802	10.88843
372.017	-24.93558
372.232	21.42623
372.446	-5.9708
372.661	27.74919
372.876	19.31862
373.091	-33.36373
373.306	31.96461
373.52	-5.9708
373.735	12.99594
373.95	59.36716
374.165	82.55695
374.379	-5.9708
374.594	0.35123
374.809	-3.86348
375.023	8.78094
375.238	82.55695
375.453	-39.68458
375.667	-29.1497
375.882	-16.50703
376.097	-8.0781
376.311	-3.86348
376.526	21.42623
376.741	-20.72135
376.955	-14.39983
377.17	34.07236
377.384	2.45862
377.599	12.99594
377.813	23.53386
378.028	0.35123
378.242	55.15113
378.457	4.56604
378.672	-33.36373
378.886	40.39575
379.101	0.35123
379.315	6.67348
379.53	80.44868
379.744	-20.72135
379.958	38.28793
380.173	29.85689
380.387	25.64151
380.602	21.42623
380.816	21.42623
381.031	-12.29261
381.245	50.93519
381.459	-48.11204
381.674	38.28793
381.888	23.53386
382.103	17.21104
382.317	-3.86348
382.531	2.45862
382.746	15.10348
382.96	48.82725
383.174	-62.85911
383.388	74.12398
383.603	8.78094
383.817	6.67348
384.031	15.10348
384.246	55.15113
384.46	34.07236
384.674	63.58328
384.888	-41.79148
385.103	19.31862
385.317	76.23219
385.531	40.39575
385.745	65.69137
385.959	29.85689
386.174	12.99594
386.388	-12.29261
386.602	-16.50703
386.816	-29.1497
387.03	-41.79148
387.244	40.39575
387.458	38.28793
387.672	8.78094
387.887	-8.0781
388.101	88.88192
388.315	12.99594
388.529	55.15113
388.743	-18.61421
388.957	10.88843
389.171	4.56604
389.385	88.88192
389.599	55.15113
389.813	23.53386
390.027	36.18013
390.241	40.39575
390.455	31.96461
390.669	63.58328
390.883	67.79949
391.097	-10.18537
391.311	21.42623
391.525	31.96461
391.738	72.0158
391.952	40.39575
392.166	21.42623
392.38	10.88843
392.594	69.90763
392.808	72.0158
393.022	38.28793
393.236	-8.0781
393.449	6.67348
393.663	105.74946
393.877	-16.50703
394.091	31.96461
394.305	42.50359
394.518	-48.11204
394.732	-12.29261
394.946	2.45862
395.16	38.28793
395.373	-29.1497
395.587	63.58328
395.801	42.50359
396.015	-46.00521
396.228	34.07236
396.442	34.07236
396.656	31.96461
396.869	19.31862
397.083	55.15113
397.297	34.07236
397.51	-27.04265
397.724	12.99594
397.938	34.07236
398.151	97.31551
398.365	101.53244
398.578	59.36716
398.792	50.93519
399.005	-20.72135
399.219	86.77357
399.433	8.78094
399.646	-12.29261
399.86	67.79949
400.073	34.07236
400.287	8.78094
400.5	-10.18537
400.714	-14.39983
400.927	55.15113
401.141	-8.0781
401.354	93.09867
401.567	-102.88057
401.781	-1.75614
401.994	44.61145
402.208	31.96461
402.421	15.10348
402.635	8.78094
402.848	63.58328
403.061	21.42623
403.275	80.44868
403.488	55.15113
403.701	29.85689
403.915	74.12398
404.128	-12.29261
404.341	25.64151
404.555	-10.18537
404.768	46.71934
404.981	-14.39983
405.195	65.69137
405.408	97.31551
405.621	57.25913
405.834	-20.72135
406.048	80.44868
406.261	80.44868
406.474	29.85689
406.687	55.15113
406.9	-10.18537
407.114	44.61145
407.327	-50.21884
407.54	-27.04265
407.753	25.64151
407.966	50.93519
408.179	-18.61421
408.392	17.21104
408.605	65.69137
408.819	53.04315
409.032	-31.25673
409.245	0.35123
409.458	82.55695
409.671	-31.25673
409.884	44.61145
410.097	48.82725
410.31	72.0158
410.523	38.28793
410.736	0.35123
410.949	4.56604
411.162	-12.29261
411.375	21.42623
411.588	25.64151
411.801	-39.68458
412.014	50.93519
412.227	23.53386
412.44	4.56604
412.653	-18.61421
412.865	74.12398
413.078	48.82725
413.291	4.56604
413.504	44.61145
413.717	67.79949
413.93	38.28793
414.143	-54.43236
414.356	-14.39983
414.568	21.42623
414.781	63.58328
414.994	59.36716
415.207	-52.32561
415.42	17.21104
415.632	23.53386
415.845	74.12398
416.058	-5.9708
416.271	34.07236
416.483	-73.39198
416.696	6.67348
416.909	19.31862
417.121	40.39575
417.334	34.07236
417.547	-52.32561
417.759	-46.00521
417.972	46.71934
418.185	-24.93558
418.397	-12.29261
418.61	6.67348
418.823	88.88192
419.035	21.42623
419.248	17.21104
419.46	29.85689
419.673	46.71934
419.885	34.07236
420.098	50.93519
420.311	105.74946
420.523	74.12398
420.736	29.85689
420.948	29.85689
421.161	34.07236
421.373	53.04315
421.586	-16.50703
421.798	156.36047
422.01	84.66525
422.223	48.82725
422.435	109.96657
422.648	93.09867
422.86	15.10348
423.073	38.28793
423.285	29.85689
423.497	63.58328
423.71	23.53386
423.922	-5.9708
424.134	4.56604
424.347	38.28793
424.559	67.79949
424.771	80.44868
424.984	101.53244
425.196	48.82725
425.408	15.10348
425.621	19.31862
425.833	-29.1497
426.045	93.09867
426.257	42.50359
426.47	-12.29261
426.682	-16.50703
426.894	42.50359
427.106	-20.72135
427.318	19.31862
427.531	31.96461
427.743	-5.9708
427.955	50.93519
428.167	12.99594
428.379	46.71934
428.591	6.67348
428.804	15.10348
429.016	86.77357
429.228	-46.00521
429.44	57.25913
429.652	12.99594
429.864	84.66525
430.076	29.85689
430.288	50.93519
430.5	36.18013
430.712	88.88192
430.924	-33.36373
431.136	-1.75614
431.348	46.71934
431.56	90.99028
431.772	61.47521
431.984	8.78094
432.196	55.15113
432.408	55.15113
432.62	-60.75247
432.832	80.44868
433.044	67.79949
433.256	105.74946
433.468	50.93519
433.679	21.42623
433.891	46.71934
434.103	40.39575
434.315	12.99594
434.527	12.99594
434.739	46.71934
434.95	-3.86348
435.162	55.15113
435.374	59.36716
435.586	46.71934
435.798	21.42623
436.009	57.25913
436.221	-27.04265
436.433	101.53244
436.645	44.61145
436.856	12.99594
437.068	15.10348
437.28	21.42623
437.491	17.21104
437.703	42.50359
437.915	63.58328
438.126	65.69137
438.338	38.28793
438.55	17.21104
438.761	59.36716
438.973	4.56604
439.184	80.44868
439.396	10.88843
439.608	105.74946
439.819	-1.75614
440.031	38.28793
440.242	21.42623
440.454	63.58328
440.665	38.28793
440.877	80.44868
441.088	46.71934
441.3	-27.04265
441.511	65.69137
441.723	17.21104
441.934	93.09867
442.146	105.74946
442.357	72.0158
442.569	8.78094
442.78	88.88192
442.991	80.44868
443.203	38.28793
443.414	38.28793
443.626	36.18013
443.837	4.56604
444.048	105.74946
444.26	74.12398
444.471	88.88192
444.682	105.74946
444.894	42.50359
445.105	-29.1497
445.316	72.0158
445.528	46.71934
445.739	2.45862
445.95	88.88192
446.161	126.83588
446.373	90.99028
446.584	21.42623
446.795	63.58328
447.006	40.39575
447.217	53.04315
447.429	72.0158
447.64	122.61842
447.851	67.79949
448.062	107.85801
448.273	42.50359
448.484	38.28793
448.695	65.69137
448.907	55.15113
449.118	118.40105
449.329	120.50972
449.54	116.2924
449.751	74.12398
449.962	44.61145
450.173	-12.29261
450.384	10.88843
450.595	42.50359
450.806	137.37989
451.017	21.42623
451.228	80.44868
451.439	12.99594
451.65	31.96461
451.861	57.25913
452.072	40.39575
452.283	29.85689
452.494	88.88192
452.705	82.55695
452.915	99.42397
453.126	147.92445
453.337	109.96657
453.548	95.20708
453.759	120.50972
453.97	63.58328
454.181	17.21104
454.391	44.61145
454.602	78.34042
454.813	150.03342
455.024	126.83588
455.235	67.79949
455.445	55.15113
455.656	48.82725
455.867	101.53244
456.078	80.44868
456.288	95.20708
456.499	67.79949
456.71	147.92445
456.921	72.0158
457.131	99.42397
457.342	72.0158
457.553	0.35123
457.763	63.58328
457.974	105.74946
458.184	93.09867
458.395	135.27105
458.606	164.79683
458.816	147.92445
459.027	74.12398
459.237	99.42397
459.448	169.01513
459.659	93.09867
459.869	126.83588
460.08	107.85801
460.29	101.53244
460.501	150.03342
460.711	65.69137
460.922	50.93519
461.132	118.40105
461.343	126.83588
461.553	147.92445
461.764	126.83588
461.974	80.44868
462.184	185.88917
462.395	177.45199
462.605	160.57861
462.816	135.27105
463.026	175.34274
463.236	97.31551
463.447	99.42397
463.657	162.68771
463.867	141.59765
464.078	175.34274
464.288	234.40925
464.498	215.42188
464.709	175.34274
464.919	234.40925
465.129	114.18377
465.339	139.48876
465.55	209.09311
465.76	192.21728
465.97	206.98356
466.18	173.23352
466.391	285.04988
466.601	238.62888
466.811	295.60137
467.021	257.61818
467.231	266.05836
467.441	244.95848
467.651	223.86052
467.862	344.14405
468.072	325.14796
468.282	244.95848
468.492	194.32669
468.702	295.60137
468.912	266.05836
469.122	344.14405
469.332	320.92681
469.542	329.36919
469.752	358.91976
469.962	418.03086
470.172	447.59118
470.382	405.3631
470.592	348.36559
470.802	430.69919
471.012	540.51437
471.222	453.92593
471.432	538.40216
471.642	405.3631
471.852	500.38496
472.062	451.81433
472.272	586.98623
472.482	536.28998
472.691	595.43635
472.901	472.93102
473.111	565.86185
473.321	523.61715
473.531	563.74948
473.741	633.46441
473.95	696.85324
474.16	618.67523
474.37	612.3372
474.58	686.28771
474.79	876.50654
474.999	713.75867
475.209	705.30587
475.419	834.22902
475.628	861.70902
475.838	815.20529
476.048	817.319
476.258	1026.61666
476.467	992.78599
476.677	975.87127
476.886	1145.0352
477.096	1096.3971
477.306	1140.8057
477.515	1056.21976
477.725	1119.6585
477.935	1102.74106
478.144	1314.22621
478.354	1147.14995
478.563	1320.5712
478.773	1381.90676
478.982	1307.88124
479.192	1494.00433
479.401	1536.30513
479.611	1474.96889
479.82	1576.49049
480.03	1595.52548
480.239	1673.77866
480.449	1663.2041
480.658	1976.16972
480.868	1754.14283
481.077	1737.22446
481.287	1686.46804
481.496	1732.99483
481.705	1893.70915
481.915	2096.67165
482.124	1823.92846
482.333	2077.64654
482.543	1948.68385
482.752	2183.33369
482.961	2083.98831
483.171	2314.35649
483.38	2240.39624
483.589	2329.14716
483.799	2109.35472
484.008	2303.79144
484.217	2257.30244
484.426	2498.14773
484.636	2455.90398
484.845	2675.52058
485.054	2468.57757
485.263	2713.51769
485.472	2639.63063
485.682	2713.51769
485.891	2588.95635
486.1	2700.85245
486.309	2759.95285
486.518	2973.04647
486.727	2694.51966
486.936	2970.93736
487.146	2964.60993
487.355	3042.63875
487.564	3040.53014
487.773	3183.87985
487.982	3063.72402
488.191	3188.09489
488.4	2994.13679
488.609	3331.36659
488.818	3278.70224
489.027	3379.80825
489.236	3455.61131
489.445	3491.39913
489.654	3491.39913
489.863	3733.35274
490.072	3602.939
490.281	3758.58558
490.49	3699.70461
490.698	3848.98015
490.907	3548.22781
491.116	4002.35622
491.325	3752.27763
491.534	4040.15833
491.743	3832.16531
491.952	4061.15661
492.16	4023.35821
492.369	4029.65841
492.578	4164.01813
492.787	4124.13901
492.996	4187.10257
493.204	4208.0862
493.413	4205.98793
493.622	4375.87832
493.831	4243.7535
494.039	4606.36484
494.248	4401.03522
494.457	4629.39874
494.665	4554.00502
494.874	4560.28893
495.083	4593.79975
495.291	4585.42258
495.5	4765.45268
495.709	4932.77212
495.917	4669.17819
496.126	4939.04375
496.335	5039.36166
496.543	4918.13751
496.752	4813.57197
496.96	4939.04375
497.169	4790.5599
497.377	5120.83075
497.586	4987.11937
497.794	5150.06746
498.003	5068.61103
498.211	5183.47526
498.42	5137.538
498.628	5262.79485
498.837	5158.41997
499.045	5266.96864
499.254	5085.32292
499.462	5304.52846
499.671	5317.04672
499.879	5331.65028
500.087	5415.07719
500.296	5592.23447
500.504	5629.72829
500.713	5781.7082
500.921	5567.23434
501.129	5706.77492
501.338	5492.21361
501.546	5842.04888
501.754	5679.70816
501.962	5831.64673
502.171	5792.11318
502.379	5881.57166
502.587	5638.05921
502.795	5979.30196
503.004	5881.57166
503.212	5964.74969
503.42	5943.95872
503.628	6106.0658
503.837	5891.97098
504.045	6012.55997
504.253	6031.26495
504.461	6147.60866
504.669	6295.00999
504.877	6174.60648
505.085	6037.49952
505.294	6184.9892
505.502	6174.60648
505.71	6510.70918
505.918	6187.06567
506.126	6284.63348
506.334	6211.98153
506.542	6514.85478
506.75	6612.24964
506.958	6676.4609
507.166	6404.9651
507.374	6784.12056
507.582	6463.02816
507.79	6562.52248
507.998	6467.17482
508.206	6854.47999
508.414	6531.43624
508.622	6724.08724
508.83	6637.10824
509.037	6935.15405
509.245	6653.67879
509.453	6891.71846
509.661	6819.30357
509.869	7073.66777
510.077	6860.68691
510.285	7079.86752
510.492	6833.78877
510.7	7044.73294
510.908	6895.85561
511.116	6966.17336
511.324	6941.35832
511.531	7119.12792
511.739	7102.59821
511.947	7125.3262
512.155	7129.45827
512.362	7243.05543
512.57	7317.37375
512.778	7327.69349
512.985	7362.77651
513.193	7362.77651
513.401	7511.2937
513.608	7426.73519
513.816	7492.73518
514.024	7597.8771
514.231	7519.54137
514.439	7626.72986
514.646	7560.77456
514.854	7845.05214
515.061	7412.29473
515.269	7653.51798
515.477	7566.9588
515.684	7725.62204
515.892	7470.05018
516.099	7653.51798
516.307	7519.54137
516.514	7952.06802
516.722	7894.45101
516.929	7966.46975
517.136	7826.52448
517.344	7857.40297
517.551	7659.69934
517.759	7725.62204
517.966	7995.27022
518.173	7919.14599
518.381	7906.79887
518.588	7995.27022
518.796	8137.15732
519.003	8178.26612
519.21	8098.09654
519.418	8157.71271
519.625	8244.02366
519.832	8272.78622
520.039	8170.045
520.247	8309.761
520.454	8303.59898
520.661	8490.43602
520.868	8264.56874
521.076	8570.46049
521.283	8202.92758
521.49	8720.17323
521.697	8453.49189
521.904	8601.23149
522.112	8449.38661
522.319	8322.08452
522.526	8346.72945
522.733	8843.15133
522.94	8705.8215
523.147	8802.1659
523.354	8732.47399
523.561	9025.44974
523.768	8818.56094
523.975	9080.72619
524.183	8755.02369
524.39	9013.16436
524.597	9027.49724
524.804	9019.30713
525.011	9240.3433
525.218	9088.91422
525.425	8943.53525
525.632	9197.37965
525.838	9160.54771
526.045	9189.19525
526.252	9203.51777
526.459	9365.10065
526.666	9152.36209
526.873	9410.08004
527.08	9567.44633
527.287	9522.49421
527.494	9528.62449
527.701	9710.42536
527.907	9645.07296
528.114	9583.79066
528.321	9457.09553
528.528	9610.34805
528.735	9514.32027
528.941	9459.13949
529.148	9604.21966
529.355	9751.26262
529.562	9318.06825
529.768	9932.91556
529.975	9583.79066
530.182	9812.50716
530.388	9585.83363
530.595	10020.63875
530.802	9677.75113
531.008	10206.19892
531.215	10079.78594
531.422	10140.96019
531.628	10122.60923
531.835	9996.16055
532.042	10287.72763
532.248	10293.84141
532.455	9939.03665
532.661	10283.65171
532.868	10155.23237
533.074	10383.49643
533.281	10279.57573
533.487	10517.9315
533.694	10334.59688
533.9	10595.30833
534.107	10350.89757
534.313	10509.78551
534.52	10389.60834
534.726	10599.3803
534.933	10534.22287
535.139	10489.41965
535.345	10688.95105
535.552	10835.47101
535.758	10489.41965
535.965	10558.65841
536.171	10924.98111
536.377	10788.6727
536.584	10992.09924
536.79	10922.94704
536.996	11164.924
537.203	10979.89685
537.409	10878.19452
537.615	11073.43831
537.821	10782.56811
538.028	11128.33233
538.234	10906.67403
538.44	10988.03182
538.646	10937.18532
538.853	11173.05502
539.059	10904.63986
539.265	11132.39824
539.471	11193.38182
539.677	11124.26638
539.883	11075.47157
540.09	11485.9748
540.296	11309.22479
540.502	11473.78752
540.708	11280.77522
540.914	11579.39937
541.12	11581.43011
541.326	11691.077
541.532	11473.78752
541.738	11682.95591
541.944	11766.19038
542.15	11599.70644
542.356	11555.02965
542.562	11981.31549
542.768	11555.02965
542.974	11881.88249
543.18	11944.79136
543.386	12127.38649
543.592	11883.91193
543.798	12127.38649
544.004	11814.90621
544.21	12242.99814
544.415	11851.43986
544.621	12167.95472
544.827	11798.66815
545.033	12048.26971
545.239	11930.58682
545.445	12437.66013
545.651	12368.7246
545.856	12472.12501
546.062	12316.00388
546.268	12098.98694
546.474	12307.89259
546.679	12214.60451
546.885	12180.1246
547.091	12443.74231
547.297	12105.07268
547.502	12137.52883
547.708	12096.95834
547.914	12344.39254
548.119	12378.86267
548.325	12646.44842
548.531	12372.77985
548.736	12725.48715
548.942	12202.43537
549.147	12701.16849
549.353	12443.74231
549.559	12731.56668
549.764	12585.64317
549.97	12618.07332
550.175	12642.3949
550.381	12938.24086
550.586	12589.69703
550.792	12676.84899
550.997	13041.55728
551.203	12695.0887
551.408	13041.55728
551.614	13280.55534
551.819	12905.82511
552.025	13209.67269
552.23	12999.01681
552.435	13157.01348
552.641	13059.78824
552.846	13100.30009
553.052	13325.10745
553.257	13084.09558
553.462	13071.942
553.668	13499.24695
553.873	13080.04441
554.078	13280.55534
554.283	13355.48274
554.489	13513.41985
554.694	13497.22224
554.899	13339.2827
555.105	13319.03228
555.31	13566.06048
555.515	13487.09861
555.72	13545.81437
555.925	13525.5679
556.131	13728.01706
556.336	13754.33305
556.541	13642.99251
556.746	13481.02439
556.951	13768.50298
557.156	13493.1728
557.361	13715.87104
557.567	13845.42293
557.772	13774.57576
557.977	13501.27166
558.182	13764.45444
558.387	13642.99251
558.592	14005.32265
558.797	13476.97489
559.002	14009.37053
559.207	13770.52724
559.412	13991.15497
559.617	13736.11434
559.822	13968.89123
560.027	14187.46836
560.232	14084.25469
560.437	13930.43496
560.642	14262.34552
560.847	14183.42087
561.051	14383.76264
561.256	14223.89542
561.461	14276.51118
561.666	14175.32586
561.871	14341.26735
562.076	14096.39777
562.281	14292.70039
562.485	13732.06571
562.69	14227.94283
562.895	14323.05486
563.1	14452.56307
563.305	14387.80977
563.509	14543.61994
563.714	14333.17293
563.919	14703.46949
564.123	14505.17404
564.328	14256.2745
564.533	14401.97469
564.737	14448.51604
564.942	14395.90402
565.147	14545.6434
565.351	14519.33837
565.556	14752.03016
565.761	14642.76791
565.965	14762.14691
566.17	14428.28077
566.374	14770.24029
566.579	14849.15017
566.784	14853.1968
566.988	14667.04864
567.193	14956.38523
567.397	14638.7211
567.602	14897.70962
567.806	14764.17025
568.011	14905.80283
568.215	14964.47839
568.42	15385.32008
568.624	14796.5437
568.828	15089.92174
569.033	15083.85192
569.237	15199.17838
569.442	14932.10571
569.646	15045.40969
569.85	14897.70962
570.055	15178.94567
570.259	14958.40852
570.463	15571.46516
570.668	15083.85192
570.872	15195.13184
571.076	15185.01549
571.281	15296.29554
571.485	15367.11046
571.689	15280.10932
571.893	15237.62055
572.098	15504.69516
572.302	15452.08897
572.506	15749.52267
572.71	15269.99294
572.914	15395.43654
573.119	15429.83262
573.323	15450.06567
573.527	15530.99841
573.731	15520.88176
573.935	15812.24923
