Data from Scatter_Coeff_Baseline_USB4F045381__40__0040.txt Node

Date: Thu Feb 13 19:24:02 EST 2025
User: mmckonesweet
Spectrometer: USB4F04538
Trigger mode: 4
Integration Time (sec): 2.400000E-3
Scans to average: 1
Electric dark correction enabled: true
Nonlinearity correction enabled: true
Boxcar width: 0
XAxis mode: Wavelengths
Number of Pixels in Spectrum: 3648
>>>>>Begin Spectral Data<<<<<
345.52	10.53718
345.736	10.53718
345.952	10.53718
346.168	-58.9969
346.384	-18.9654
346.6	33.72107
346.816	-35.82187
347.032	-4.2147
347.248	16.85977
347.464	-27.39383
347.68	16.85977
347.896	33.72107
348.112	-84.27527
348.328	-29.50088
348.544	37.93663
348.76	29.5056
348.975	12.64469
349.191	0
349.407	-99.01926
349.623	23.18258
349.839	-84.27527
350.055	-58.9969
350.27	42.15228
350.486	-40.03573
350.702	8.4297
350.918	-54.78349
351.133	12.64469
351.349	-25.28676
351.565	-16.85823
351.781	-6.32202
351.996	-21.07254
352.212	-77.95602
352.428	-58.9969
352.644	-2.10736
352.859	-33.71489
353.075	29.5056
353.291	-18.9654
353.506	23.18258
353.722	25.29023
353.938	-58.9969
354.153	23.18258
354.369	-63.21022
354.584	-21.07254
354.8	33.72107
355.016	-4.2147
355.231	-54.78349
355.447	-75.84956
355.662	37.93663
355.878	-2.10736
356.093	-21.07254
356.309	-31.6079
356.524	73.77262
356.74	-4.2147
356.955	-37.92881
357.171	-61.10358
357.386	-14.75104
357.602	-8.42931
357.817	-99.01926
358.033	-88.48797
358.248	-27.39383
358.464	-80.06246
358.679	-42.14263
358.895	21.07496
359.11	-16.85823
359.325	-21.07254
359.541	-4.2147
359.756	48.47593
359.972	-4.2147
360.187	-12.64382
360.402	-16.85823
360.618	21.07496
360.833	2.10739
361.048	-54.78349
361.264	50.58386
361.479	21.07496
361.694	18.96735
361.909	46.36803
362.125	-27.39383
362.34	-4.2147
362.555	-44.2495
362.77	-12.64382
362.986	-65.31684
363.201	-12.64382
363.416	0
363.631	-52.67674
363.847	-27.39383
364.062	-18.9654
364.277	12.64469
364.492	14.75222
364.707	-21.07254
364.922	-42.14263
365.138	10.53718
365.353	-21.07254
365.568	-54.78349
365.783	10.53718
365.998	6.32224
366.213	-12.64382
366.428	-54.78349
366.643	-25.28676
366.858	21.07496
367.073	0
367.288	-54.78349
367.503	-73.74306
367.718	-46.35635
367.933	-10.53658
368.148	-50.56997
368.363	-29.50088
368.578	-46.35635
368.793	-23.17966
369.008	-88.48797
369.223	37.93663
369.438	6.32224
369.653	29.5056
369.868	12.64469
370.083	-12.64382
370.298	-16.85823
370.513	10.53718
370.728	35.82884
370.943	-63.21022
371.157	-21.07254
371.372	-12.64382
371.587	0
371.802	33.72107
372.017	-14.75104
372.232	-27.39383
372.446	-75.84956
372.661	6.32224
372.876	-25.28676
373.091	25.29023
373.306	0
373.52	-21.07254
373.735	-67.42343
373.95	37.93663
374.165	21.07496
374.379	-37.92881
374.594	-29.50088
374.809	-77.95602
375.023	-54.78349
375.238	-33.71489
375.453	-63.21022
375.667	-75.84956
375.882	-4.2147
376.097	-8.42931
376.311	0
376.526	-50.56997
376.741	-16.85823
376.955	29.5056
377.17	-61.10358
377.384	21.07496
377.599	-40.03573
377.813	-8.42931
378.028	-46.35635
378.242	-33.71489
378.457	16.85977
378.672	-10.53658
378.886	-33.71489
379.101	12.64469
379.315	23.18258
379.53	-42.14263
379.744	12.64469
379.958	4.2148
380.173	21.07496
380.387	48.47593
380.602	14.75222
380.816	16.85977
381.031	33.72107
381.245	14.75222
381.459	-25.28676
381.674	4.2148
381.888	0
382.103	0
382.317	-33.71489
382.531	73.77262
382.746	8.4297
382.96	-12.64382
383.174	14.75222
383.388	-117.97394
383.603	-29.50088
383.817	46.36803
384.031	4.2148
384.246	-27.39383
384.46	-12.64382
384.674	-52.67674
384.888	12.64469
385.103	31.61332
385.317	-12.64382
385.531	-63.21022
385.745	-86.38163
385.959	-46.35635
386.174	37.93663
386.388	56.90779
386.602	-4.2147
386.816	-58.9969
387.03	16.85977
387.244	0
387.458	54.79979
387.672	0
387.887	-46.35635
388.101	-42.14263
388.315	-52.67674
388.529	-37.92881
388.743	-25.28676
388.957	37.93663
389.171	-10.53658
389.385	-25.28676
389.599	12.64469
389.813	8.4297
390.027	59.01582
390.241	-46.35635
390.455	-71.63655
390.669	37.93663
390.883	-33.71489
391.097	14.75222
391.311	-58.9969
391.525	-27.39383
391.738	50.58386
391.952	-46.35635
392.166	71.66443
392.38	12.64469
392.594	6.32224
392.808	14.75222
393.022	-42.14263
393.236	-10.53658
393.449	-4.2147
393.663	-2.10736
393.877	-37.92881
394.091	6.32224
394.305	48.47593
394.518	-54.78349
394.732	31.61332
394.946	21.07496
395.16	48.47593
395.373	-8.42931
395.587	-4.2147
395.801	-29.50088
396.015	2.10739
396.228	8.4297
396.442	-21.07254
396.656	-4.2147
396.869	-2.10736
397.083	4.2148
397.297	31.61332
397.51	-48.46317
397.724	27.39791
397.938	-69.53
398.151	-21.07254
398.365	-12.64382
398.578	-52.67674
398.792	-33.71489
399.005	-8.42931
399.219	-29.50088
399.433	23.18258
399.646	-35.82187
399.86	54.79979
400.073	10.53718
400.287	12.64469
400.5	0
400.714	-25.28676
400.927	-35.82187
401.141	-105.33773
401.354	-46.35635
401.567	-46.35635
401.781	35.82884
401.994	-40.03573
402.208	-12.64382
402.421	0
402.635	6.32224
402.848	-71.63655
403.061	-67.42343
403.275	6.32224
403.488	-50.56997
403.701	-27.39383
403.915	-50.56997
404.128	-18.9654
404.341	-4.2147
404.555	-29.50088
404.768	8.4297
404.981	-29.50088
405.195	33.72107
405.408	-61.10358
405.621	-12.64382
405.834	23.18258
406.048	-27.39383
406.261	29.5056
406.474	-37.92881
406.687	-92.70056
406.9	-96.91306
407.114	-63.21022
407.327	18.96735
407.54	-4.2147
407.753	-8.42931
407.966	-46.35635
408.179	54.79979
408.392	-40.03573
408.605	12.64469
408.819	-14.75104
409.032	-12.64382
409.245	-58.9969
409.458	8.4297
409.671	-25.28676
409.884	54.79979
410.097	35.82884
410.31	8.4297
410.523	-21.07254
410.736	-65.31684
410.949	0
411.162	23.18258
411.375	-37.92881
411.588	-67.42343
411.801	-42.14263
412.014	-12.64382
412.227	14.75222
412.44	63.23193
412.653	-75.84956
412.865	40.04444
413.078	-75.84956
413.291	-31.6079
413.504	-21.07254
413.717	-46.35635
413.93	-4.2147
414.143	54.79979
414.356	-27.39383
414.568	4.2148
414.781	42.15228
414.994	-120.07989
415.207	-10.53658
415.42	-10.53658
415.632	-10.53658
415.845	4.2148
416.058	-2.10736
416.271	-37.92881
416.483	-58.9969
416.696	6.32224
416.909	-23.17966
417.121	-12.64382
417.334	-18.9654
417.547	8.4297
417.759	71.66443
417.972	-37.92881
418.185	-80.06246
418.397	84.31387
418.61	-4.2147
418.823	23.18258
419.035	-25.28676
419.248	35.82884
419.46	42.15228
419.673	-44.2495
419.885	75.88082
420.098	29.5056
420.311	29.5056
420.523	6.32224
420.736	-44.2495
420.948	-4.2147
421.161	10.53718
421.373	0
421.586	-40.03573
421.798	-2.10736
422.01	-27.39383
422.223	-12.64382
422.435	21.07496
422.648	-4.2147
422.86	0
423.073	14.75222
423.285	-10.53658
423.497	-42.14263
423.71	-12.64382
423.922	67.44814
424.134	-16.85823
424.347	27.39791
424.559	27.39791
424.771	16.85977
424.984	-10.53658
425.196	-50.56997
425.408	37.93663
425.621	-35.82187
425.833	29.5056
426.045	-58.9969
426.257	-33.71489
426.47	8.4297
426.682	-12.64382
426.894	-12.64382
427.106	-2.10736
427.318	-63.21022
427.531	14.75222
427.743	40.04444
427.955	-12.64382
428.167	40.04444
428.379	-12.64382
428.591	-4.2147
428.804	46.36803
429.016	-54.78349
429.228	54.79979
429.44	-29.50088
429.652	-12.64382
429.864	-61.10358
430.076	-40.03573
430.288	-12.64382
430.5	-8.42931
430.712	-33.71489
430.924	0
431.136	-42.14263
431.348	65.34002
431.56	31.61332
431.772	-46.35635
431.984	-52.67674
432.196	23.18258
432.408	-21.07254
432.62	-35.82187
432.832	-21.07254
433.044	10.53718
433.256	14.75222
433.468	6.32224
433.679	21.07496
433.891	-84.27527
434.103	6.32224
434.315	-61.10358
434.527	-18.9654
434.739	-16.85823
434.95	2.10739
435.162	-82.16888
435.374	37.93663
435.586	21.07496
435.798	-8.42931
436.009	50.58386
436.221	-29.50088
436.433	8.4297
436.645	-8.42931
436.856	-4.2147
437.068	33.72107
437.28	-46.35635
437.491	61.12386
437.703	-58.9969
437.915	42.15228
438.126	-63.21022
438.338	-29.50088
438.55	-27.39383
438.761	-37.92881
438.973	-63.21022
439.184	-4.2147
439.396	12.64469
439.608	-21.07254
439.819	-69.53
440.031	37.93663
440.242	-12.64382
440.454	-14.75104
440.665	23.18258
440.877	61.12386
441.088	-37.92881
441.3	-25.28676
441.511	37.93663
441.723	-8.42931
441.934	4.2148
442.146	14.75222
442.357	-27.39383
442.569	54.79979
442.78	25.29023
442.991	-82.16888
443.203	0
443.414	14.75222
443.626	21.07496
443.837	-10.53658
444.048	40.04444
444.26	35.82884
444.471	63.23193
444.682	50.58386
444.894	63.23193
445.105	8.4297
445.316	-71.63655
445.528	12.64469
445.739	6.32224
445.95	12.64469
446.161	37.93663
446.373	50.58386
446.584	-18.9654
446.795	-4.2147
447.006	-12.64382
447.217	31.61332
447.429	54.79979
447.64	88.53052
447.851	29.5056
448.062	-52.67674
448.273	16.85977
448.484	12.64469
448.695	56.90779
448.907	-8.42931
449.118	31.61332
449.329	-69.53
449.54	33.72107
449.751	21.07496
449.962	-21.07254
450.173	6.32224
450.384	-10.53658
450.595	61.12386
450.806	54.79979
451.017	-16.85823
451.228	-4.2147
451.439	42.15228
451.65	-37.92881
451.861	-12.64382
452.072	-12.64382
452.283	16.85977
452.494	65.34002
452.705	-50.56997
452.915	54.79979
453.126	25.29023
453.337	16.85977
453.548	73.77262
453.759	16.85977
453.97	10.53718
454.181	-23.17966
454.391	86.42218
454.602	65.34002
454.813	8.4297
455.024	-14.75104
455.235	-40.03573
455.445	10.53718
455.656	4.2148
455.867	18.96735
456.078	-21.07254
456.288	16.85977
456.499	-42.14263
456.71	33.72107
456.921	59.01582
457.131	-42.14263
457.342	-2.10736
457.553	52.69182
457.763	-29.50088
457.974	48.47593
458.184	-4.2147
458.395	-10.53658
458.606	6.32224
458.816	25.29023
459.027	0
459.237	-31.6079
459.448	33.72107
459.659	-14.75104
459.869	-46.35635
460.08	21.07496
460.29	-52.67674
460.501	29.5056
460.711	-46.35635
460.922	-21.07254
461.132	21.07496
461.343	8.4297
461.553	14.75222
461.764	31.61332
461.974	12.64469
462.184	88.53052
462.395	8.4297
462.605	8.4297
462.816	-21.07254
463.026	-50.56997
463.236	-21.07254
463.447	12.64469
463.657	-4.2147
463.867	63.23193
464.078	-8.42931
464.288	-4.2147
464.498	-29.50088
464.709	61.12386
464.919	21.07496
465.129	-44.2495
465.339	75.88082
465.55	25.29023
465.76	48.47593
465.97	-18.9654
466.18	16.85977
466.391	18.96735
466.601	25.29023
466.811	50.58386
467.021	63.23193
467.231	6.32224
467.441	-12.64382
467.651	37.93663
467.862	-29.50088
468.072	33.72107
468.282	54.79979
468.492	-44.2495
468.702	4.2148
468.912	18.96735
469.122	-27.39383
469.332	56.90779
469.542	40.04444
469.752	59.01582
469.962	42.15228
470.172	31.61332
470.382	29.5056
470.592	90.63889
470.802	56.90779
471.012	21.07496
471.222	40.04444
471.432	56.90779
471.642	21.07496
471.852	21.07496
472.062	107.50658
472.272	42.15228
472.482	50.58386
472.691	-21.07254
472.901	56.90779
473.111	-16.85823
473.321	73.77262
473.531	118.04961
473.741	67.44814
473.95	80.0973
474.16	90.63889
474.37	-8.42931
474.58	105.39804
474.79	69.55627
474.999	103.28953
475.209	124.37568
475.419	156.00896
475.628	46.36803
475.838	37.93663
476.048	147.57295
476.258	88.53052
476.467	33.72107
476.677	149.68192
476.886	65.34002
477.096	84.31387
477.306	109.61514
477.515	80.0973
477.725	153.89993
477.935	92.74727
478.144	158.11802
478.354	164.4453
478.563	187.64696
478.773	80.0973
478.982	115.94096
479.192	96.96411
479.401	215.07028
479.611	174.9912
479.82	99.07256
480.03	191.86571
480.239	113.83233
480.449	210.85109
480.658	257.26651
480.868	240.38709
481.077	240.38709
481.287	183.42829
481.496	231.94784
481.705	231.94784
481.915	223.5089
482.124	259.37653
482.333	242.49695
482.543	291.029
482.752	295.24965
482.961	261.48656
483.171	234.05762
483.38	291.029
483.589	299.47036
483.799	299.47036
484.008	303.69116
484.217	253.04654
484.426	358.56795
484.636	398.67758
484.845	381.78858
485.054	358.56795
485.263	354.34623
485.472	329.01742
485.682	419.79031
485.891	278.36751
486.1	453.574
486.309	419.79031
486.518	504.25687
486.727	453.574
486.936	367.01157
487.146	468.35561
487.355	443.01617
487.564	443.01617
487.773	599.30939
487.982	506.36885
488.191	614.09776
488.4	459.90888
488.609	516.92892
488.818	675.37029
489.027	592.97171
489.236	620.43582
489.445	639.45067
489.654	552.83581
489.863	738.76589
490.072	688.04861
490.281	645.78918
490.49	571.84695
490.698	654.24069
490.907	679.59635
491.116	726.08599
491.325	647.90204
491.534	878.26818
491.743	747.21937
491.952	764.12683
492.16	838.10432
492.369	823.3079
492.578	692.27481
492.787	890.95213
492.996	869.81237
493.204	857.12892
493.413	907.86452
493.622	926.89155
493.831	806.39826
494.039	1013.57757
494.248	865.58452
494.457	1036.83665
494.665	1077.01306
494.874	992.4336
495.083	909.9786
495.291	1123.53545
495.5	979.74753
495.709	1186.97855
495.917	1083.35688
496.126	1229.27581
496.335	1034.72216
496.543	1246.19506
496.752	1110.84729
496.96	1330.79371
497.169	1212.35674
497.377	1195.43789
497.586	1174.28964
497.794	1248.30998
498.003	1161.60087
498.211	1313.87371
498.42	1250.4249
498.628	1296.95383
498.837	1423.85514
499.045	1472.50133
499.254	1341.36876
499.462	1527.49249
499.671	1315.9887
499.879	1491.53678
500.087	1502.11201
500.296	1542.29771
500.504	1508.45714
500.713	1535.95263
500.921	1364.63399
501.129	1616.32279
501.338	1449.23576
501.546	1582.483
501.754	1495.76687
501.962	1726.29789
502.171	1578.253
502.379	1738.9868
502.587	1684.00067
502.795	1605.74791
503.004	1516.91731
503.212	1749.5608
503.42	1700.91971
503.628	1933.53095
503.837	1753.79037
504.045	1728.41272
504.253	1872.21164
504.461	1855.29519
504.669	1806.6587
504.877	1880.66974
505.085	1918.73016
505.294	1982.1601
505.502	1787.6264
505.71	2001.188
505.918	1829.91994
506.126	2168.18642
506.334	1992.73122
506.542	2138.5952
506.75	1925.07339
506.958	2117.45765
507.166	2130.14027
507.374	2170.30002
507.582	1990.61701
507.79	2227.364
507.998	1774.938
508.206	2092.09159
508.414	2191.43555
508.622	2176.64077
508.83	2119.57144
509.037	2316.11731
509.245	2223.13725
509.453	2322.4562
509.661	2009.64468
509.869	2208.34336
510.077	2244.27063
510.285	2328.795
510.492	2294.98706
510.7	2360.48769
510.908	2206.22992
511.116	2366.82596
511.324	2231.59071
511.531	2497.79572
511.739	2497.79572
511.947	2565.37635
512.155	2390.06549
512.362	2413.30378
512.57	2246.38392
512.778	2508.35597
512.985	2316.11731
513.193	2594.93909
513.401	2580.15801
513.608	2772.26412
513.816	2531.58751
514.024	2618.1653
514.231	2628.72218
514.439	2637.16746
514.646	2649.83501
514.854	2869.3309
515.061	2630.83352
515.269	2765.93266
515.477	2573.82309
515.684	2943.16596
515.892	2635.05616
516.099	2875.66032
516.307	2717.38753
516.514	2919.96258
516.722	2763.82215
516.929	2974.80406
517.136	2632.94484
517.344	2915.74359
517.551	2702.61154
517.759	3038.07007
517.966	3067.58949
518.173	3048.61307
518.381	2873.55053
518.588	3124.5111
518.796	3189.85114
519.003	3156.12919
519.21	2945.27527
519.418	3240.42616
519.625	2987.45835
519.832	3204.60317
520.039	3210.92522
520.247	3299.41816
520.454	3154.02143
520.661	3217.24713
520.868	3400.516
521.076	3354.18446
521.283	3164.56007
521.49	3265.71007
521.697	3392.09272
521.904	3343.65339
522.112	3244.64031
522.319	3632.04302
522.526	3158.23693
522.733	3653.07982
522.94	3322.58994
523.147	3543.66797
523.354	3352.07828
523.561	3625.73161
523.768	3474.20759
523.975	3568.92134
524.183	3299.41816
524.39	3669.90789
524.597	3724.59068
524.804	3745.61905
525.011	3484.73317
525.218	3913.77539
525.425	3657.28695
525.632	3665.70099
525.838	3663.59751
526.045	3730.89939
526.252	3642.56165
526.459	3690.94127
526.666	3779.26041
526.873	3892.7628
527.08	3882.25576
527.287	3983.1026
527.494	3693.0445
527.701	4039.80834
527.907	4111.19416
528.114	4054.50738
528.321	3924.28093
528.528	4086.0019
528.735	4222.4238
528.941	3947.39134
529.148	3842.32443
529.355	4253.89308
529.562	4077.60382
529.768	4165.76704
529.975	3884.35721
530.182	4186.75282
530.388	3943.18963
530.595	4188.85128
530.802	4132.1854
531.008	4369.23917
531.215	4224.5219
531.422	4235.01209
531.628	4216.12936
531.835	4406.97459
532.042	4199.34328
532.248	4526.42326
532.455	4230.81608
532.661	4369.23917
532.868	4367.14256
533.074	4402.78211
533.281	4484.51959
533.487	4689.76262
533.694	4341.98144
533.9	4790.21121
534.107	4524.32829
534.313	4769.28872
534.52	4664.64235
534.726	4813.22332
534.933	4614.39211
535.139	4725.34412
535.345	4752.5491
535.552	4698.13532
535.758	4643.70632
535.965	4886.42533
536.171	4635.33128
536.377	4704.41461
536.584	4997.22067
536.79	4685.57613
536.996	4846.69057
537.203	4965.87005
537.409	4777.65799
537.615	4903.15329
537.821	4794.39543
538.028	5149.71943
538.234	4894.7895
538.44	5049.46017
538.646	4846.69057
538.853	5095.41897
539.059	4754.64163
539.265	5185.21508
539.471	5049.46017
539.677	5007.66973
539.883	5041.10282
540.09	5204.00417
540.296	5178.95163
540.502	5235.31513
540.708	5162.24808
540.914	5247.83804
541.12	5204.00417
541.326	5475.19077
541.532	5268.70768
541.738	5437.66551
541.944	5224.87873
542.15	5587.72081
542.356	5329.21643
542.562	5635.6294
542.768	5441.83536
542.974	5633.54668
543.18	5352.16288
543.386	5554.38574
543.592	5681.44333
543.798	5731.40914
544.004	5535.63211
544.21	5831.29998
544.415	5662.70265
544.621	5879.14507
544.827	5575.22086
545.033	5852.10373
545.239	5456.42909
545.445	5974.79781
545.651	5795.9282
545.856	5789.68541
546.062	5750.14282
546.268	5737.65391
546.474	5739.73546
546.679	5804.25158
546.885	5664.78504
547.091	6001.82107
547.297	5689.77191
547.502	6016.3704
547.708	5641.87743
547.914	5845.86285
548.119	5816.73595
548.325	5954.00798
548.531	5862.50472
548.736	6157.64677
548.942	5750.14282
549.147	5945.69139
549.353	6107.79694
549.559	6070.40068
549.764	5908.26206
549.97	6352.76189
550.175	5845.86285
550.381	6307.11518
550.586	5945.69139
550.792	6358.98556
550.997	6070.40068
551.203	6493.78037
551.408	6348.61265
551.614	6414.98919
551.819	6242.77562
552.025	6236.54802
552.23	6441.94784
552.435	6485.48814
552.641	6383.87816
552.846	6605.68918
553.052	6163.87705
553.257	6551.81558
553.462	6311.26535
553.668	6477.19554
553.873	6510.36371
554.078	6526.94557
554.283	6601.54561
554.489	6854.13516
554.694	6574.61016
554.899	6858.27314
555.105	6402.54541
555.31	6779.63597
555.515	6634.69158
555.72	6587.04239
555.925	6321.64036
556.131	6941.01364
556.336	6587.04239
556.541	6887.23644
556.746	6777.56613
556.951	6821.02806
557.156	6750.65608
557.361	6982.37032
557.567	7238.58166
557.772	6825.16676
557.977	6808.61139
558.182	7062.98995
558.387	6932.74122
558.592	6938.94557
558.797	6986.50549
559.002	7073.32333
559.207	6872.75534
559.412	7085.72265
559.617	6903.7849
559.822	7174.56093
560.027	6891.37369
560.232	7071.2567
560.437	6802.40275
560.642	7281.93848
560.847	7100.18751
561.051	7366.55959
561.256	6860.34209
561.461	7364.4961
561.666	7242.7113
561.871	7360.36905
562.076	6969.96427
562.281	7279.87409
562.485	7224.12723
562.69	7416.07686
562.895	7069.19005
563.1	7383.06674
563.305	7197.2804
563.509	7449.08142
563.714	7211.73685
563.919	7583.10562
564.123	7118.78357
564.328	7477.95586
564.533	7284.00285
564.737	7116.71743
564.942	7325.2856
565.147	7484.14269
565.351	7215.86706
565.556	7644.93243
565.761	7556.30804
565.965	7609.89959
566.17	7356.24192
566.374	7601.65568
566.579	7401.63562
566.784	7300.517
566.988	7531.5686
567.193	7741.75608
567.397	7510.95004
567.602	7727.33849
567.806	7422.26564
568.011	7832.35744
568.215	7770.58817
568.42	7924.97631
568.624	7655.23504
568.828	7679.95914
569.033	7490.32932
569.237	7700.56023
569.442	7486.20492
569.646	7760.29147
569.85	7657.2955
570.055	7840.59193
570.259	7758.23206
570.463	7844.70905
570.668	7646.993
570.872	7904.39796
571.076	8058.68576
571.281	7951.72511
571.485	8034.00741
571.689	8110.08965
571.893	7844.70905
572.098	8268.33513
572.302	8034.00741
572.506	8210.80494
572.71	7904.39796
572.914	8153.25921
573.119	7920.86081
573.323	8290.93205
573.527	7992.87034
573.731	8231.35321
573.935	7980.52763
574.139	8352.54798
574.343	8073.08012
574.547	8299.14852
574.751	8034.00741
574.955	8488.04168
575.159	8097.75387
575.364	8518.82406
575.568	8286.82369
575.772	8420.30531
575.976	8200.53006
576.18	8274.49816
576.383	8268.33513
576.587	8295.04032
576.791	8354.60154
576.995	8650.11454
577.199	8420.30531
577.403	8453.14979
577.607	8578.32459
577.811	8687.0262
578.015	8325.8499
578.219	8590.63307
578.422	8617.29912
578.626	8717.78133
