Data from Scatter_Coeff_Baseline_USB4F045381__42__0042.txt Node

Date: Thu Feb 13 19:29:56 EST 2025
User: mmckonesweet
Spectrometer: USB4F04538
Trigger mode: 4
Integration Time (sec): 2.400000E-3
Scans to average: 1
Electric dark correction enabled: true
Nonlinearity correction enabled: true
Boxcar width: 0
XAxis mode: Wavelengths
Number of Pixels in Spectrum: 3648
>>>>>Begin Spectral Data<<<<<
345.52	-53.02787
345.736	-53.02787
345.952	-53.02787
346.168	33.36978
346.384	18.61609
346.6	16.50851
346.816	-10.88778
347.032	-50.9211
347.248	27.04663
347.464	-31.95906
347.68	41.80097
347.896	-25.63794
348.112	5.97099
348.328	-27.74501
348.544	-15.10224
348.76	69.20492
348.975	1.75615
349.191	18.61609
349.407	1.75615
349.623	-53.02787
349.839	-44.60065
350.055	33.36978
350.27	-36.17303
350.486	-67.77453
350.702	-42.49378
350.918	98.72115
351.133	75.52945
351.349	1.75615
351.565	48.12461
351.781	-84.62633
351.996	-42.49378
352.212	29.15432
352.428	-15.10224
352.644	-44.60065
352.859	-42.49378
353.075	-31.95906
353.291	16.50851
353.506	-36.17303
353.722	48.12461
353.938	-17.20943
354.153	18.61609
354.369	-74.09415
354.584	-19.31659
354.8	-4.56592
355.016	-42.49378
355.231	69.20492
355.447	5.97099
355.662	-31.95906
355.878	75.52945
356.093	-6.67324
356.309	-10.88778
356.524	46.01671
356.74	41.80097
356.955	-55.13461
357.171	-4.56592
357.386	22.83131
357.602	33.36978
357.817	22.83131
358.033	-29.85205
358.248	-36.17303
358.464	39.69314
358.679	-76.20064
358.895	-27.74501
359.11	-6.67324
359.325	33.36978
359.541	12.29343
359.756	22.83131
359.972	-46.70749
360.187	3.86356
360.402	-10.88778
360.618	-29.85205
360.833	-8.78052
361.048	-8.78052
361.264	-12.99502
361.479	-21.42373
361.694	-31.95906
361.909	24.93896
362.125	50.23254
362.34	-2.45859
362.555	39.69314
362.77	-65.66794
362.986	-15.10224
363.201	41.80097
363.416	-31.95906
363.631	-8.78052
363.847	50.23254
364.062	33.36978
364.277	1.75615
364.492	-31.95906
364.707	-36.17303
364.922	37.58533
365.138	-71.98763
365.353	-48.81431
365.568	18.61609
365.783	62.88058
365.998	14.40096
366.213	5.97099
366.428	-10.88778
366.643	46.01671
366.858	3.86356
367.073	35.47754
367.288	-19.31659
367.503	5.97099
367.718	-44.60065
367.933	12.29343
368.148	-6.67324
368.363	-36.17303
368.578	-2.45859
368.793	48.12461
369.008	24.93896
369.223	24.93896
369.438	48.12461
369.653	46.01671
369.868	62.88058
370.083	-61.45468
370.298	33.36978
370.513	-19.31659
370.728	62.88058
370.943	27.04663
371.157	-78.3071
371.372	24.93896
371.587	-17.20943
371.802	12.29343
372.017	37.58533
372.232	-10.88778
372.446	-19.31659
372.661	31.26204
372.876	-6.67324
373.091	-40.38689
373.306	22.83131
373.52	-53.02787
373.735	18.61609
373.95	-44.60065
374.165	-6.67324
374.379	-57.24133
374.594	62.88058
374.809	35.47754
375.023	-19.31659
375.238	-44.60065
375.453	-10.88778
375.667	5.97099
375.882	-2.45859
376.097	22.83131
376.311	10.18593
376.526	67.09678
376.741	-65.66794
376.955	12.29343
377.17	-10.88778
377.384	-44.60065
377.599	-53.02787
377.813	-25.63794
378.028	-0.35123
378.242	-6.67324
378.457	10.18593
378.672	50.23254
378.886	-74.09415
379.101	12.29343
379.315	56.55646
379.53	-27.74501
379.744	3.86356
379.958	5.97099
380.173	52.34049
380.387	-6.67324
380.602	-34.06606
380.816	8.07845
381.031	-10.88778
381.245	100.82962
381.459	22.83131
381.674	52.34049
381.888	39.69314
382.103	5.97099
382.317	14.40096
382.531	14.40096
382.746	14.40096
382.96	-6.67324
383.174	-36.17303
383.388	-8.78052
383.603	22.83131
383.817	-55.13461
384.031	-44.60065
384.246	27.04663
384.46	-17.20943
384.674	24.93896
384.888	67.09678
385.103	-80.41353
385.317	64.98867
385.531	22.83131
385.745	27.04663
385.959	22.83131
386.174	-27.74501
386.388	35.47754
386.602	27.04663
386.816	-19.31659
387.03	-29.85205
387.244	-17.20943
387.458	31.26204
387.672	1.75615
387.887	33.36978
388.101	20.72369
388.315	-17.20943
388.529	-36.17303
388.743	-0.35123
388.957	22.83131
389.171	-23.53085
389.385	31.26204
389.599	14.40096
389.813	1.75615
390.027	-29.85205
390.241	83.96248
390.455	-2.45859
390.669	79.74592
390.883	18.61609
391.097	16.50851
391.311	-53.02787
391.525	16.50851
391.738	46.01671
391.952	10.18593
392.166	18.61609
392.38	-15.10224
392.594	39.69314
392.808	-19.31659
393.022	64.98867
393.236	14.40096
393.449	-34.06606
393.663	14.40096
393.877	43.90883
394.091	12.29343
394.305	35.47754
394.518	-53.02787
394.732	-15.10224
394.946	-23.53085
395.16	16.50851
395.373	33.36978
395.587	-36.17303
395.801	1.75615
396.015	12.29343
396.228	-6.67324
396.442	14.40096
396.656	-38.27997
396.869	-21.42373
397.083	33.36978
397.297	10.18593
397.51	10.18593
397.724	90.28749
397.938	5.97099
398.151	94.50427
398.365	-19.31659
398.578	10.18593
398.792	56.55646
399.005	5.97099
399.219	29.15432
399.433	-38.27997
399.646	31.26204
399.86	1.75615
400.073	-8.78052
400.287	43.90883
400.5	77.63768
400.714	-34.06606
400.927	-78.3071
401.141	92.39587
401.354	20.72369
401.567	8.07845
401.781	-8.78052
401.994	-40.38689
402.208	16.50851
402.421	-38.27997
402.635	-2.45859
402.848	1.75615
403.061	-0.35123
403.275	-19.31659
403.488	67.09678
403.701	-0.35123
403.915	-69.8811
404.128	39.69314
404.341	-2.45859
404.555	-65.66794
404.768	94.50427
404.981	-40.38689
405.195	48.12461
405.408	-15.10224
405.621	24.93896
405.834	-27.74501
406.048	35.47754
406.261	-23.53085
406.474	22.83131
406.687	20.72369
406.9	10.18593
407.114	12.29343
407.327	22.83131
407.54	-50.9211
407.753	-19.31659
407.966	16.50851
408.179	-15.10224
408.392	-17.20943
408.605	-19.31659
408.819	52.34049
409.032	98.72115
409.245	-12.99502
409.458	-48.81431
409.671	48.12461
409.884	31.26204
410.097	-19.31659
410.31	100.82962
410.523	16.50851
410.736	31.26204
410.949	14.40096
411.162	10.18593
411.375	-23.53085
411.588	-0.35123
411.801	-19.31659
412.014	39.69314
412.227	22.83131
412.44	-27.74501
412.653	43.90883
412.865	67.09678
413.078	22.83131
413.291	5.97099
413.504	-44.60065
413.717	22.83131
413.93	-61.45468
414.143	14.40096
414.356	16.50851
414.568	-17.20943
414.781	35.47754
414.994	58.66448
415.207	14.40096
415.42	-34.06606
415.632	29.15432
415.845	-10.88778
416.058	29.15432
416.271	-59.34802
416.483	48.12461
416.696	27.04663
416.909	-19.31659
417.121	-0.35123
417.334	-15.10224
417.547	52.34049
417.759	-53.02787
417.972	22.83131
418.185	29.15432
418.397	-44.60065
418.61	48.12461
418.823	-36.17303
419.035	5.97099
419.248	39.69314
419.46	-23.53085
419.673	-2.45859
419.885	39.69314
420.098	46.01671
420.311	-44.60065
420.523	10.18593
420.736	31.26204
420.948	-10.88778
421.161	14.40096
421.373	39.69314
421.586	48.12461
421.798	3.86356
422.01	71.31307
422.223	56.55646
422.435	14.40096
422.648	67.09678
422.86	-31.95906
423.073	64.98867
423.285	-61.45468
423.497	111.37229
423.71	31.26204
423.922	-44.60065
424.134	29.15432
424.347	56.55646
424.559	71.31307
424.771	83.96248
424.984	16.50851
425.196	-4.56592
425.408	43.90883
425.621	-36.17303
425.833	33.36978
426.045	90.28749
426.257	-4.56592
426.47	41.80097
426.682	-19.31659
426.894	-38.27997
427.106	39.69314
427.318	8.07845
427.531	31.26204
427.743	-27.74501
427.955	-19.31659
428.167	-10.88778
428.379	-19.31659
428.591	-15.10224
428.804	-31.95906
429.016	-53.02787
429.228	41.80097
429.44	48.12461
429.652	-25.63794
429.864	31.26204
430.076	-2.45859
430.288	5.97099
430.5	77.63768
430.712	117.69816
430.924	-29.85205
431.136	-19.31659
431.348	22.83131
431.56	-12.99502
431.772	-23.53085
431.984	-2.45859
432.196	-19.31659
432.408	10.18593
432.62	-71.98763
432.832	39.69314
433.044	52.34049
433.256	-2.45859
433.468	16.50851
433.679	39.69314
433.891	20.72369
434.103	-40.38689
434.315	27.04663
434.527	79.74592
434.739	67.09678
434.95	31.26204
435.162	41.80097
435.374	50.23254
435.586	41.80097
435.798	-2.45859
436.009	-19.31659
436.221	39.69314
436.433	52.34049
436.645	48.12461
436.856	31.26204
437.068	109.26371
437.28	64.98867
437.491	-25.63794
437.703	31.26204
437.915	37.58533
438.126	69.20492
438.338	24.93896
438.55	41.80097
438.761	10.18593
438.973	50.23254
439.184	1.75615
439.396	-2.45859
439.608	31.26204
439.819	54.44846
440.031	10.18593
440.242	37.58533
440.454	31.26204
440.665	48.12461
440.877	83.96248
441.088	18.61609
441.3	-31.95906
441.511	41.80097
441.723	-0.35123
441.934	37.58533
442.146	-19.31659
442.357	-19.31659
442.569	94.50427
442.78	8.07845
442.991	58.66448
443.203	14.40096
443.414	54.44846
443.626	22.83131
443.837	81.85419
444.048	22.83131
444.26	18.61609
444.471	77.63768
444.682	83.96248
444.894	69.20492
445.105	41.80097
445.316	64.98867
445.528	-0.35123
445.739	64.98867
445.95	98.72115
446.161	56.55646
446.373	50.23254
446.584	37.58533
446.795	14.40096
447.006	48.12461
447.217	48.12461
447.429	-2.45859
447.64	22.83131
447.851	81.85419
448.062	-10.88778
448.273	60.77252
448.484	8.07845
448.695	64.98867
448.907	67.09678
449.118	-42.49378
449.329	41.80097
449.54	48.12461
449.751	81.85419
449.962	98.72115
450.173	58.66448
450.384	79.74592
450.595	100.82962
450.806	39.69314
451.017	58.66448
451.228	-2.45859
451.439	98.72115
451.65	-17.20943
451.861	58.66448
452.072	115.58952
452.283	16.50851
452.494	39.69314
452.705	58.66448
452.915	92.39587
453.126	64.98867
453.337	41.80097
453.548	58.66448
453.759	81.85419
453.97	174.63967
454.181	117.69816
454.391	115.58952
454.602	107.15516
454.813	50.23254
455.024	115.58952
455.235	14.40096
455.445	39.69314
455.656	117.69816
455.867	48.12461
456.078	157.7665
456.288	92.39587
456.499	176.7489
456.71	27.04663
456.921	86.0708
457.131	100.82962
457.342	86.0708
457.553	79.74592
457.763	134.5681
457.974	33.36978
458.184	37.58533
458.395	149.33043
458.606	113.4809
458.816	109.26371
459.027	149.33043
459.237	157.7665
459.448	43.90883
459.659	115.58952
459.869	102.93811
460.08	81.85419
460.29	67.09678
460.501	117.69816
460.711	145.11251
460.922	77.63768
461.132	136.67694
461.343	109.26371
461.553	140.89469
461.764	117.69816
461.974	126.13296
462.184	149.33043
462.395	166.20292
462.605	113.4809
462.816	140.89469
463.026	96.6127
463.236	147.22146
463.447	210.49949
463.657	111.37229
463.867	128.24171
464.078	161.98467
464.288	204.17086
464.498	140.89469
464.709	185.18606
464.919	98.72115
465.129	178.85816
465.339	212.60907
465.55	176.7489
465.76	202.06136
465.97	170.42125
466.18	286.45672
466.391	199.95188
466.601	153.54842
466.811	235.81579
467.021	263.24494
467.231	282.23623
467.441	250.58493
467.651	339.219
467.862	183.07674
468.072	284.34646
468.282	229.48645
468.492	313.8917
468.702	303.33942
468.912	320.22329
469.122	313.8917
469.332	297.00827
469.542	337.1083
469.752	334.99761
469.962	351.8836
470.172	419.43842
470.382	356.10527
470.592	377.21465
470.802	398.32572
471.012	495.45715
471.222	432.10681
471.432	415.21575
471.642	565.15772
471.852	529.24946
472.062	487.00965
472.272	613.74564
472.482	554.59606
472.691	563.04536
472.901	582.05709
473.111	630.64738
473.321	546.14697
473.531	643.32419
473.741	554.59606
473.95	736.30033
474.16	662.34023
474.37	738.41367
474.58	710.94105
474.79	799.70503
474.999	734.18699
475.209	734.18699
475.419	822.95561
475.628	903.28403
475.838	706.71465
476.048	812.38703
476.258	875.80189
476.467	947.68104
476.677	960.36649
476.886	1222.57865
477.096	1184.51125
477.306	1239.49783
477.515	1053.40037
477.725	1224.69354
477.935	1146.44503
478.144	1214.11914
478.354	1199.31511
478.563	1417.15749
478.773	1264.87694
478.982	1482.72408
479.192	1489.06922
479.401	1406.58225
479.611	1396.00703
479.82	1508.10463
480.03	1438.30799
480.239	1628.66009
480.449	1548.29029
480.658	1818.99427
480.868	1833.79675
481.077	1793.61808
481.287	1618.08527
481.496	1878.2028
481.705	2085.39759
481.915	2036.77582
482.124	1797.84749
482.333	2049.46012
482.543	1975.46497
482.752	2146.69771
482.961	2123.4467
483.171	2165.72055
483.38	2114.99156
483.589	2288.29561
483.799	2339.00733
484.008	2423.51414
484.217	2305.20013
484.426	2491.10742
484.636	2609.36767
484.845	2670.59473
485.054	2368.58657
485.263	2655.81674
485.472	2537.57117
485.682	2765.58091
485.891	2592.47562
486.1	2727.58963
486.309	2837.33025
486.518	2940.70508
486.727	2902.73468
486.936	2909.06341
487.146	3025.06651
487.355	3056.69577
487.564	2930.15822
487.773	3092.53803
487.982	3090.42979
488.191	3227.4321
488.4	3185.28487
488.609	3263.25202
488.818	3324.34529
489.027	3315.91949
489.236	3419.11641
489.445	3600.13361
489.654	3345.4086
489.863	3747.37133
490.072	3709.51915
490.281	3604.34169
490.49	3595.92545
490.698	3722.13724
490.907	3631.69239
491.116	3726.34312
491.325	3848.27956
491.534	3951.24283
491.743	3923.93075
491.952	4028.9584
492.16	4112.94351
492.369	4001.65612
492.578	4037.3584
492.787	4326.95318
492.996	4054.15741
493.204	4106.64578
493.413	4188.50154
493.622	4444.35363
493.831	4188.50154
494.039	4324.85613
494.248	4310.17614
494.457	4599.38433
494.665	4496.7424
494.874	4561.68533
495.083	4515.59899
495.291	4578.44133
495.5	4593.10167
495.709	4762.66279
495.917	4488.36112
496.126	4678.94734
496.335	4766.84761
496.543	4789.86252
496.752	4681.04067
496.96	5013.5906
497.169	4888.1679
497.377	5115.95753
497.586	5136.8419
497.794	5280.88057
498.003	4990.60264
498.211	5207.83135
498.42	5044.93332
498.628	5130.57683
498.837	5097.15961
499.045	5401.87043
499.254	5360.1587
499.462	5345.55737
499.671	5366.41606
499.879	5672.76733
500.087	5585.29033
500.296	5495.68747
500.504	5683.17848
500.713	5676.93186
500.921	5529.03316
501.129	5641.53032
501.338	5522.7813
501.546	5868.39835
501.754	5495.68747
501.962	5558.20569
502.171	5639.44766
502.379	5968.21462
502.587	5631.1168
502.795	5930.78989
503.004	5676.93186
503.212	5932.86924
503.42	5599.87272
503.628	6032.65043
503.837	5882.95827
504.045	6192.60282
504.253	6134.45444
504.461	6298.4687
504.669	6097.06361
504.877	6221.67011
505.085	6246.58127
505.294	6234.12612
505.502	6207.13704
505.71	6491.36184
505.918	6163.53093
506.126	6536.96306
506.334	6094.98612
506.542	6520.3821
506.75	6420.86513
506.958	6648.84587
507.166	6472.70356
507.374	6744.10048
507.582	6449.89644
507.79	6636.41777
507.998	6839.30666
508.206	6764.80159
508.414	6748.24089
508.622	6837.23747
508.83	6715.11509
509.037	6797.9186
509.245	6597.05664
509.453	6847.58317
509.661	6810.33598
509.869	7021.30629
510.077	6715.11509
510.285	7116.37307
510.492	6986.1609
510.7	7013.03737
510.908	7025.44061
511.116	7048.17779
511.324	7064.71222
511.531	7165.95437
511.739	7033.70899
511.947	7260.94949
512.155	7234.10779
512.362	7314.62173
512.57	7060.57875
512.778	7327.00553
512.985	7322.87768
513.193	7508.5444
513.401	7555.96446
513.608	7357.96157
513.816	7349.7071
514.024	7555.96446
514.231	7446.67502
514.439	7564.21027
514.646	7327.00553
514.854	7671.37473
515.061	7302.23715
515.269	7574.51705
515.477	7726.9952
515.684	7448.73765
515.892	7652.83115
516.099	7562.14885
516.307	7689.91659
516.514	7916.40225
516.722	7652.83115
516.929	7934.92178
517.136	7533.28672
517.344	7846.42449
517.551	7739.35322
517.759	7996.64157
517.966	7998.69858
518.173	8033.66464
518.381	8023.38111
518.588	8097.4112
518.796	8078.90613
519.003	8105.63515
519.21	8004.86949
519.418	8154.97211
519.625	8191.96728
519.832	8255.66612
520.039	8290.58969
520.247	8378.90055
520.454	8309.07634
520.661	8465.12312
520.868	8259.77507
521.076	8616.95727
521.283	8270.0471
521.49	8475.38545
521.697	8709.23866
521.904	8694.88624
522.112	8582.08559
522.319	8905.98166
522.526	8477.43786
522.733	8959.23771
522.94	8713.33918
523.147	8705.13806
523.354	8575.9312
523.561	8922.36942
523.768	8676.4318
523.975	8713.33918
524.183	8778.93761
524.39	9188.5132
524.597	8795.33429
524.804	9082.09088
525.011	9170.09726
525.218	9188.5132
525.425	9258.07216
525.632	9231.47839
525.838	9247.84413
526.045	9090.27886
526.252	9270.34526
526.459	9317.38655
526.666	9309.20609
526.873	9495.24675
527.08	9587.1956
527.287	9603.53872
527.494	9145.54053
527.701	9570.85148
527.907	9446.19415
528.114	9777.12308
528.321	9482.98447
528.528	9768.95689
528.735	9711.7867
528.941	9681.15488
529.148	9466.63386
529.355	9713.8287
529.562	9746.49859
529.768	10030.1575
529.975	9711.7867
530.182	9693.40802
530.388	9846.52606
530.595	10176.97915
530.802	9938.35654
531.008	10054.63285
531.215	9881.22108
531.422	9968.96011
531.628	10009.7598
531.835	10205.51942
532.042	10162.708
532.248	10325.76698
532.455	9973.04034
532.661	10077.06679
532.868	10138.2416
533.074	10388.92925
533.281	10325.76698
533.487	10317.61608
533.694	10413.37576
533.9	10627.20406
534.107	10358.36844
534.313	10645.52577
534.52	10433.74643
534.726	10763.57539
534.933	10445.9682
535.139	10429.6724
535.345	10529.47131
535.552	10720.83797
535.758	10511.14319
535.965	10979.21893
536.171	10783.9247
536.377	10661.8109
536.584	10853.10355
536.79	10999.55606
536.996	10910.0643
537.203	10905.99598
537.409	10718.80272
537.615	11164.24641
537.821	10737.11951
538.028	11105.29135
538.234	10889.72221
538.44	11125.6217
538.646	11048.36064
538.853	11406.07404
539.059	11036.16009
539.265	11245.54917
539.471	11080.89352
539.677	11176.44289
539.883	11349.18631
540.09	11154.08239
540.296	11131.72059
540.502	11503.57806
540.708	11363.40897
540.914	11753.33399
541.12	11536.0745
541.326	11554.3527
541.532	11471.07918
541.738	11787.84247
541.944	11534.04355
542.15	11682.27915
542.356	11832.49683
542.562	11838.58574
542.768	11603.09086
542.974	12053.67978
543.18	11830.46718
543.386	12096.28214
543.592	11909.61748
543.798	12098.31074
544.004	11883.23545
544.21	12112.51072
544.415	11903.52944
544.621	12112.51072
544.827	11840.61536
545.033	12157.13682
545.239	12019.18964
545.445	12467.39465
545.651	12136.85268
545.856	12165.25026
546.062	12238.26596
546.268	11970.4938
546.474	12126.71033
546.679	12199.73108
546.885	12169.30694
547.091	12197.70286
547.297	12092.22492
547.502	12394.40738
547.708	12098.31074
547.914	12307.21664
548.119	12538.34636
548.325	12511.99379
548.531	12280.85412
548.736	12664.01336
548.942	12299.10522
549.147	12566.72486
549.353	12544.42757
549.559	12813.97306
549.764	12568.75185
549.97	12730.89118
550.175	12664.01336
550.381	12921.35782
550.586	12688.33331
550.792	12838.28792
550.997	12884.88922
551.203	12850.44506
551.408	12931.48769
551.614	12856.52356
551.819	12965.92825
552.025	13263.679
552.23	12884.88922
552.435	13336.58267
552.641	13213.04817
552.846	13144.18577
553.052	13103.67599
553.257	13618.02388
553.462	13219.12402
553.668	13423.65507
553.873	13415.55562
554.078	13498.57205
554.283	13537.04095
554.489	13684.8307
554.694	13686.85509
554.899	13482.37422
555.105	13452.00265
555.31	13316.3322
555.515	13415.55562
555.72	13296.08131
555.925	13622.07288
556.131	13761.75541
556.336	13707.09885
556.541	13624.09738
556.746	13530.967
556.951	13792.1192
557.156	13409.48099
557.361	13927.73623
557.567	13662.56216
557.772	13786.0465
557.977	13692.92825
558.182	14008.69589
558.387	13834.6274
558.592	13950.00055
558.797	13846.77236
559.002	13891.30303
559.207	13992.50428
559.412	14235.36307
559.617	14059.29366
559.822	14055.2459
560.027	13988.45635
560.232	13980.36047
560.437	13929.76028
560.642	14061.31754
560.847	13978.33649
561.051	14075.48464
561.256	13927.73623
561.461	14449.86505
561.666	14419.5121
561.871	14429.62979
562.076	14354.758
562.281	14512.59346
562.485	14306.19132
562.69	14300.12041
562.895	14372.97025
563.1	14354.758
563.305	14490.33514
563.509	14381.06455
563.714	14352.73441
563.919	14636.02323
564.123	14536.87508
564.328	14356.78159
564.533	14336.54561
564.737	14233.33937
564.942	14435.70038
565.147	14739.21559
565.351	14555.08618
565.556	14672.44434
565.761	14644.11684
565.965	14824.19587
566.17	14844.42909
566.374	14684.58464
566.579	14646.14024
566.784	14830.26585
566.988	14688.6314
567.193	14874.77881
567.397	14674.46773
567.602	14927.38469
567.806	14848.47573
568.011	15085.20077
568.215	14892.98857
568.42	15056.87493
568.624	14892.98857
568.828	14888.94196
569.033	14690.65478
569.237	15289.55128
569.442	15024.50248
569.646	15036.64216
569.85	15113.52658
570.055	15186.36433
570.259	15186.36433
570.463	15338.11002
570.668	15461.53108
570.872	15431.18149
571.076	15325.97032
571.281	15202.5505
571.485	15726.59062
571.689	15663.86537
571.893	15178.27125
572.098	15700.28638
572.302	15321.92375
572.506	15386.66894
572.71	15311.80735
572.914	15249.08576
573.119	15538.41729
573.323	15530.32397
