Data from Scatter_Coeff_Baseline_USB4F045381__4__0004.txt Node

Date: Thu Feb 13 19:13:48 EST 2025
User: mmckonesweet
Spectrometer: USB4F04538
Trigger mode: 4
Integration Time (sec): 2.400000E-3
Scans to average: 1
Electric dark correction enabled: true
Nonlinearity correction enabled: true
Boxcar width: 0
XAxis mode: Wavelengths
Number of Pixels in Spectrum: 3648
>>>>>Begin Spectral Data<<<<<
345.52	62.70491
345.736	62.70491
345.952	62.70491
346.168	-30.02763
346.384	-51.09666
346.6	5.79537
346.816	81.6785
347.032	-2.6342
347.248	26.87099
347.464	16.33288
347.68	37.40968
347.896	-27.92059
348.112	60.59685
348.328	-40.56246
348.544	-15.27784
348.76	-84.80186
348.975	-57.41689
349.191	20.54805
349.407	18.44046
349.623	-25.81353
349.839	24.76332
350.055	26.87099
350.27	66.92111
350.486	45.84105
350.702	5.79537
350.918	79.57023
351.133	-51.09666
351.349	-40.56246
351.565	60.59685
351.781	10.01031
351.996	33.19413
352.212	-4.74153
352.428	-4.74153
352.644	-2.6342
352.859	7.90283
353.075	66.92111
353.291	26.87099
353.506	-36.3486
353.722	94.32857
353.938	10.01031
354.153	-21.59933
354.369	-48.98987
354.584	-30.02763
354.8	16.33288
355.016	66.92111
355.231	-4.74153
355.447	31.08639
355.662	-13.17063
355.878	-38.45555
356.093	43.73317
356.309	58.48881
356.524	33.19413
356.74	28.97868
356.955	-38.45555
357.171	-6.84884
357.386	-40.56246
357.602	88.00344
357.817	37.40968
358.033	16.33288
358.248	-30.02763
358.464	39.51749
358.679	28.97868
358.895	-19.49219
359.11	1.58054
359.325	-6.84884
359.541	-21.59933
359.756	50.05688
359.972	14.22533
360.187	62.70491
360.402	16.33288
360.618	-32.13465
360.833	28.97868
361.048	20.54805
361.264	-51.09666
361.479	31.08639
361.694	14.22533
361.909	54.2728
362.125	41.62532
362.34	-8.95613
362.555	83.78679
362.77	66.92111
362.986	-21.59933
363.201	41.62532
363.416	28.97868
363.631	22.65567
363.847	24.76332
364.062	45.84105
364.277	24.76332
364.492	60.59685
364.707	-63.73688
364.922	16.33288
365.138	92.22017
365.353	75.35377
365.568	-30.02763
365.783	-101.65198
365.998	66.92111
366.213	26.87099
366.428	37.40968
366.643	71.13739
366.858	52.16483
367.073	31.08639
367.288	-8.95613
367.503	58.48881
367.718	5.79537
367.933	-6.84884
368.148	37.40968
368.363	14.22533
368.578	5.79537
368.793	37.40968
369.008	-8.95613
369.223	3.68794
369.438	41.62532
369.653	-15.27784
369.868	24.76332
370.083	16.33288
370.298	22.65567
370.513	7.90283
370.728	62.70491
370.943	24.76332
371.157	60.59685
371.372	-40.56246
371.587	-17.38502
371.802	37.40968
372.017	24.76332
372.232	-8.95613
372.446	24.76332
372.661	62.70491
372.876	-21.59933
373.091	-55.31017
373.306	33.19413
373.52	12.11781
373.735	22.65567
373.95	83.78679
374.165	-34.24164
374.379	7.90283
374.594	66.92111
374.809	-11.06339
375.023	85.8951
375.238	-0.52684
375.453	28.97868
375.667	16.33288
375.882	69.02924
376.097	-42.66935
376.311	41.62532
376.526	-17.38502
376.741	16.33288
376.955	-13.17063
377.17	18.44046
377.384	20.54805
377.599	7.90283
377.813	50.05688
378.028	94.32857
378.242	-25.81353
378.457	3.68794
378.672	28.97868
378.886	1.58054
379.101	75.35377
379.315	50.05688
379.53	50.05688
379.744	71.13739
379.958	28.97868
380.173	28.97868
380.387	-8.95613
380.602	50.05688
380.816	54.2728
381.031	7.90283
381.245	-44.77622
381.459	50.05688
381.674	83.78679
381.888	37.40968
382.103	-17.38502
382.317	-17.38502
382.531	45.84105
382.746	-40.56246
382.96	77.46199
383.174	58.48881
383.388	73.24557
383.603	-4.74153
383.817	7.90283
384.031	60.59685
384.246	24.76332
384.46	-23.70644
384.674	41.62532
384.888	62.70491
385.103	66.92111
385.317	18.44046
385.531	31.08639
385.745	3.68794
385.959	-84.80186
386.174	71.13739
386.388	37.40968
386.602	24.76332
386.816	-34.24164
387.03	33.19413
387.244	22.65567
387.458	37.40968
387.672	-32.13465
387.887	-15.27784
388.101	-4.74153
388.315	-21.59933
388.529	3.68794
388.743	88.00344
388.957	24.76332
389.171	85.8951
389.385	54.2728
389.599	37.40968
389.813	26.87099
390.027	71.13739
390.241	50.05688
390.455	85.8951
390.669	3.68794
390.883	94.32857
391.097	69.02924
391.311	94.32857
391.525	26.87099
391.738	62.70491
391.952	66.92111
392.166	-4.74153
392.38	47.94895
392.594	58.48881
392.808	71.13739
393.022	94.32857
393.236	20.54805
393.449	62.70491
393.663	16.33288
393.877	-23.70644
394.091	5.79537
394.305	26.87099
394.518	-4.74153
394.732	33.19413
394.946	69.02924
395.16	-15.27784
395.373	3.68794
395.587	79.57023
395.801	47.94895
396.015	75.35377
396.228	66.92111
396.442	-78.48264
396.656	14.22533
396.869	16.33288
397.083	45.84105
397.297	60.59685
397.51	-8.95613
397.724	96.437
397.938	16.33288
398.151	50.05688
398.365	39.51749
398.578	31.08639
398.792	22.65567
399.005	14.22533
399.219	-38.45555
399.433	45.84105
399.646	37.40968
399.86	41.62532
400.073	94.32857
400.287	71.13739
400.5	33.19413
400.714	104.87091
400.927	47.94895
401.141	102.7624
401.354	52.16483
401.567	12.11781
401.781	-13.17063
401.994	37.40968
402.208	41.62532
402.421	41.62532
402.635	85.8951
402.848	-8.95613
403.061	54.2728
403.275	-6.84884
403.488	-8.95613
403.701	75.35377
403.915	52.16483
404.128	52.16483
404.341	41.62532
404.555	41.62532
404.768	16.33288
404.981	79.57023
405.195	24.76332
405.408	18.44046
405.621	66.92111
405.834	33.19413
406.048	58.48881
406.261	16.33288
406.474	90.11179
406.687	88.00344
406.9	28.97868
407.114	24.76332
407.327	79.57023
407.54	50.05688
407.753	94.32857
407.966	12.11781
408.179	26.87099
408.392	75.35377
408.605	35.30189
408.819	94.32857
409.032	-23.70644
409.245	88.00344
409.458	33.19413
409.671	71.13739
409.884	66.92111
410.097	-6.84884
410.31	159.69982
410.523	12.11781
410.736	16.33288
410.949	43.73317
411.162	35.30189
411.375	60.59685
411.588	22.65567
411.801	69.02924
412.014	71.13739
412.227	43.73317
412.44	28.97868
412.653	-4.74153
412.865	88.00344
413.078	109.088
413.291	64.813
413.504	26.87099
413.717	64.813
413.93	77.46199
414.143	33.19413
414.356	3.68794
414.568	37.40968
414.781	-38.45555
414.994	18.44046
415.207	28.97868
415.42	43.73317
415.632	-6.84884
415.845	-6.84884
416.058	69.02924
416.271	35.30189
416.483	5.79537
416.696	85.8951
416.909	39.51749
417.121	109.088
417.334	7.90283
417.547	96.437
417.759	54.2728
417.972	41.62532
418.185	26.87099
418.397	47.94895
418.61	56.38079
418.823	102.7624
419.035	96.437
419.248	37.40968
419.46	33.19413
419.673	-17.38502
419.885	85.8951
420.098	54.2728
420.311	3.68794
420.523	18.44046
420.736	7.90283
420.948	45.84105
421.161	20.54805
421.373	41.62532
421.586	134.39237
421.798	20.54805
422.01	43.73317
422.223	109.088
422.435	39.51749
422.648	85.8951
422.86	-0.52684
423.073	43.73317
423.285	100.65391
423.497	109.088
423.71	35.30189
423.922	-4.74153
424.134	92.22017
424.347	85.8951
424.559	100.65391
424.771	37.40968
424.984	-4.74153
425.196	71.13739
425.408	62.70491
425.621	22.65567
425.833	26.87099
426.045	113.30518
426.257	41.62532
426.47	94.32857
426.682	134.39237
426.894	66.92111
427.106	123.8485
427.318	52.16483
427.531	90.11179
427.743	151.26366
427.955	69.02924
428.167	1.58054
428.379	134.39237
428.591	79.57023
428.804	41.62532
429.016	100.65391
429.228	66.92111
429.44	92.22017
429.652	117.52244
429.864	37.40968
430.076	-13.17063
430.288	69.02924
430.5	83.78679
430.712	121.73979
430.924	155.4817
431.136	98.54544
431.348	58.48881
431.56	109.088
431.772	7.90283
431.984	134.39237
432.196	50.05688
432.408	94.32857
432.62	117.52244
432.832	168.13631
433.044	147.04571
433.256	189.22898
433.468	109.088
433.679	113.30518
433.891	144.93677
434.103	88.00344
434.315	104.87091
434.527	115.4138
434.739	130.17476
434.95	191.33836
435.162	92.22017
435.374	121.73979
435.586	104.87091
435.798	125.95723
436.009	159.69982
436.221	142.82785
436.433	144.93677
436.645	136.50121
436.856	220.8718
437.068	185.01029
437.28	170.24549
437.491	119.63111
437.703	128.06598
437.915	273.61962
438.126	227.2009
438.338	201.88557
438.55	125.95723
438.761	117.52244
438.973	189.22898
439.184	218.76214
439.396	191.33836
439.608	94.32857
439.819	222.98148
440.031	241.96948
440.242	210.32369
440.454	191.33836
440.665	140.71894
440.877	180.79167
441.088	229.31064
441.3	151.26366
441.511	220.8718
441.723	130.17476
441.934	168.13631
442.146	225.09118
442.357	203.99507
442.569	176.57313
442.78	227.2009
442.991	182.90097
443.203	201.88557
443.414	155.4817
443.626	260.95905
443.837	153.37267
444.048	174.4639
444.26	210.32369
444.471	315.82634
444.682	193.44776
444.894	138.61006
445.105	254.62902
445.316	214.54287
445.528	271.50948
445.739	172.35468
445.95	269.39935
446.161	298.94277
446.373	227.2009
446.584	315.82634
446.795	241.96948
447.006	279.95016
447.217	269.39935
447.429	271.50948
447.64	303.16355
447.851	265.17916
448.062	216.6525
448.273	279.95016
448.484	273.61962
448.695	298.94277
448.907	214.54287
449.118	326.37915
449.329	273.61962
449.54	292.61173
449.751	252.51905
449.962	254.62902
450.173	269.39935
450.384	355.92937
450.595	353.81853
450.806	387.59405
451.017	277.83996
451.228	347.4861
451.439	341.15383
451.65	404.48342
451.861	311.60534
452.072	421.37383
452.283	296.83241
452.494	370.70575
452.705	328.48976
452.915	404.48342
453.126	410.8172
453.337	429.81942
453.548	408.70593
453.759	431.93086
453.97	389.70517
454.181	476.27464
454.391	374.92772
454.602	564.98169
454.813	434.04231
455.024	505.84085
455.235	505.84085
455.445	476.27464
455.656	457.26933
455.867	444.59982
456.078	537.52208
456.288	400.26098
456.499	501.61693
456.71	632.58408
456.921	480.4982
457.131	495.28116
457.342	448.82293
457.553	503.72888
457.763	550.19546
457.974	594.55612
458.184	596.66867
458.395	630.47131
458.606	626.24581
458.816	691.74653
459.027	714.99138
459.237	839.68967
459.448	729.78425
459.659	689.63343
459.869	634.69687
460.08	807.98352
460.29	829.12073
460.501	888.30962
460.711	776.27947
460.922	784.73367
461.132	974.99031
461.343	932.70549
461.553	903.10786
461.764	955.96179
461.974	814.32458
462.184	898.87975
462.395	1044.76605
462.605	996.13375
462.816	1046.88057
463.026	979.21894
463.236	1055.3387
463.447	1148.38356
463.657	1029.96458
463.867	1158.9574
464.078	1211.82803
464.288	1158.9574
464.498	1173.76094
464.709	1169.53134
464.919	1118.77737
465.129	1385.25557
465.339	1323.91994
465.55	1421.21133
465.76	1235.09178
465.97	1436.01668
466.18	1414.86618
466.391	1630.5988
466.601	1476.20267
466.811	1518.50359
467.021	1605.21917
467.231	1736.34329
467.441	1556.57412
467.651	1753.26167
467.862	1746.91731
468.072	1960.4888
468.282	1850.53738
468.492	1784.98299
468.702	2100.0186
468.912	2138.06677
469.122	2057.74001
469.332	2095.79087
469.542	2083.10751
469.752	2216.26871
469.962	2233.17572
470.172	2343.05699
470.382	2258.53516
470.592	2362.07226
470.802	2431.78787
471.012	2467.69747
471.222	2450.79923
471.432	2535.28331
471.642	2539.50704
471.852	2687.30717
472.062	2647.19597
472.272	2737.9673
472.482	2932.09184
472.691	3075.49595
472.901	2913.10669
473.111	2889.90102
473.321	3033.3256
473.531	3290.46487
473.741	3142.95543
473.95	3374.7188
474.16	3164.03315
474.37	3364.18858
474.58	3486.31196
474.79	3688.3122
474.999	3429.46888
475.209	3517.88576
475.419	3629.41329
475.628	3789.24673
475.838	3694.62191
476.048	3936.36167
476.258	3875.42591
476.467	4001.48109
476.677	4286.93066
476.886	4488.18651
477.096	4240.78146
477.306	4471.42288
477.515	4217.70299
477.725	4372.9082
477.935	4362.42509
478.144	4795.96449
478.354	4425.31564
478.563	4938.1727
478.773	4848.2592
478.982	4950.7154
479.192	4990.42848
479.401	5147.10919
479.611	5040.58047
479.82	5188.86867
480.03	5312.00474
480.239	5445.4839
480.449	5280.70667
480.658	5562.19919
480.868	5641.35677
481.077	5857.82434
481.287	5712.1531
481.496	5718.39852
481.705	6024.16421
481.915	6071.95901
482.124	5911.90136
482.333	6190.35337
482.543	6316.97168
482.752	6404.10093
482.961	6250.55983
483.171	6451.79714
483.38	6362.61594
483.589	6501.554
483.799	6694.23592
484.008	6994.2587
484.217	6408.24891
484.426	6961.17615
484.636	7081.073
484.845	6996.32617
485.054	6735.64687
485.263	7205.02506
485.472	7093.47182
485.682	7405.24603
485.891	7458.87858
486.1	7266.97115
486.309	7679.44408
486.518	7640.29609
486.727	7535.17663
486.936	7572.28396
487.146	7648.5384
487.355	7819.49039
487.564	7895.65153
487.773	8148.63433
487.982	8004.69808
488.191	8117.79915
488.4	8039.66313
488.609	8251.38588
488.818	8189.7409
489.027	8487.5286
489.236	8395.15542
489.445	8639.3475
489.654	8542.93395
489.863	8711.11807
490.072	8444.42595
490.281	8637.29658
490.49	8942.68183
490.698	8961.11511
490.907	8618.83745
491.116	9288.58333
491.325	9100.34288
491.534	9198.57318
491.743	9298.8097
491.952	9396.96187
492.16	9429.67087
492.369	9454.19989
492.578	9437.84747
492.787	9519.5993
492.996	9584.98239
493.204	9872.88786
493.413	9723.8683
493.622	9791.24323
493.831	9725.91021
494.039	10189.04114
494.248	9999.39043
494.457	10101.36829
494.665	10101.36829
494.874	10148.26627
495.083	10174.77057
495.291	10315.40851
495.5	10352.08613
495.709	10506.90043
495.917	10427.46561
496.126	10458.01978
496.335	10464.13026
496.543	10694.2092
496.752	10728.80924
496.96	10710.49201
497.169	10891.58695
497.377	10826.48486
497.586	10854.96848
497.794	11074.62438
498.003	10985.15071
498.211	11204.7305
498.42	11206.76306
498.628	11198.63275
498.837	11310.41014
499.045	11277.89628
499.254	11247.41217
499.462	11460.75351
499.671	11757.22478
499.879	11609.01354
500.087	11302.28192
500.296	11680.07966
500.504	11676.01904
500.713	11511.53314
500.921	11913.50702
501.129	11736.92466
501.338	11617.13595
501.546	11856.68289
501.754	11745.04481
501.962	11964.2374
502.171	11913.50702
502.379	12260.40544
502.587	12193.47737
502.795	12288.7968
503.004	11740.98475
503.212	12333.409
503.42	12173.19456
503.628	12363.82448
503.837	12288.7968
504.045	12540.20451
504.253	12351.65847
504.461	12296.90836
504.669	12515.87917
504.877	12793.5412
505.085	12718.56317
505.294	12641.55042
505.502	12815.83047
505.71	12844.19767
505.918	12590.8794
506.126	12722.61624
506.334	12661.81777
506.542	13156.16956
506.75	13073.1236
506.958	13071.09799
507.166	13075.14921
507.374	13006.27586
507.582	12994.12114
507.79	13069.07238
507.998	13322.23863
508.206	13397.16289
508.414	13338.43894
508.622	13287.81207
508.83	13306.03805
509.037	13761.58672
509.245	13257.43468
509.453	13623.92867
509.661	13625.95316
509.869	13881.01387
510.077	13470.05696
510.285	13804.09585
510.492	13907.327
510.7	13974.11987
510.908	13800.04742
511.116	13757.53816
511.324	13913.3992
511.531	14087.45913
511.739	14034.83826
511.947	14150.1974
512.155	13992.33562
512.362	14091.50682
512.57	14140.07846
512.778	14200.7913
512.985	14229.12333
513.193	14095.55451
513.401	14289.83356
513.608	14241.26551
513.816	14251.38394
514.024	14338.40058
514.231	14352.56577
514.439	14429.46116
514.646	14607.52685
514.854	14330.30614
515.061	14514.44831
515.269	14447.6729
515.477	14409.22575
515.684	14652.04182
515.892	14666.20557
516.099	14668.22895
516.307	14874.6102
516.514	15127.52088
516.722	14868.54027
516.929	14884.72674
517.136	14702.62642
517.344	14819.98061
517.551	14445.64938
517.759	15313.66202
517.966	15188.219
518.173	15020.28732
518.381	14987.9148
518.588	15254.98698
518.796	15416.84977
519.003	15645.48636
519.21	15234.75424
519.418	15594.90229
519.625	15582.76218
519.832	15358.17427
520.039	15242.84734
520.247	15576.69214
520.454	15305.5689
520.661	15799.26542
520.868	15439.10609
521.076	15562.52873
521.283	15783.07788
521.49	15655.60324
521.697	15641.43962
521.904	16163.5067
522.112	15704.16456
522.319	16100.77295
522.526	15944.95665
522.733	16234.33704
522.94	15997.569
523.147	16133.15147
523.354	16042.08788
523.561	16197.90975
523.768	16264.69355
523.975	16353.74166
524.183	16187.79116
524.39	16068.39482
524.597	16268.74112
524.804	16584.47495
525.011	16693.77944
525.218	16809.1638
525.425	16519.70498
525.632	16586.49905
525.838	16590.54725
526.045	16701.87633
526.252	16892.16452
526.459	16788.92036
526.666	16940.7523
526.873	17062.22842
527.08	17446.97025
527.287	17185.7393
527.494	16904.31133
527.701	17106.77213
527.907	17165.4909
528.114	17380.13894
528.321	17169.54056
528.528	17507.72893
528.735	17580.64313
528.941	17390.26468
529.148	17226.23698
529.355	17382.16408
529.562	17679.89421
529.768	18153.98172
529.975	17337.61166
530.182	17372.0384
530.388	17264.71086
530.595	17683.94544
530.802	17766.99866
531.008	17925.01813
531.215	17534.05858
531.422	17645.45927
531.628	17793.33378
531.835	17657.61267
532.042	18050.63851
532.248	18139.7968
532.455	17819.66949
532.661	18265.44093
532.868	18253.2812
533.074	18389.07249
533.281	18494.47443
533.487	18328.26834
533.694	18370.83088
533.9	18859.4083
534.107	18291.78747
534.313	18847.24177
534.52	18395.15309
534.726	18391.09935
534.933	18482.31214
535.139	18709.36453
535.345	18464.06896
535.552	18727.61194
535.758	19127.10842
535.965	18822.90916
536.171	18699.22722
536.377	19200.12982
536.584	18788.43894
536.79	19021.64238
536.996	19291.41405
537.203	19222.44297
537.409	18956.74566
537.615	19187.95922
537.821	19143.33494
538.028	19794.64223
538.234	19106.82563
538.44	19165.64683
538.646	19094.65616
538.853	19626.19456
539.059	19372.56259
539.265	19743.90195
539.471	19321.84398
539.677	19423.28379
539.883	19555.17105
540.09	19778.40506
540.296	19814.93908
540.502	19774.3458
540.708	19555.17105
540.914	19402.995
541.12	19910.3399
541.326	19942.81889
541.532	20019.96081
541.738	20084.92714
541.944	20032.14167
542.15	20028.08137
542.356	20409.82336
542.562	20432.16393
542.768	20200.65908
542.974	20430.13295
543.18	20312.3432
543.386	20637.3146
543.592	20793.74516
543.798	20915.65613
544.004	20436.2259
544.21	20673.88057
544.415	20531.68714
544.621	21118.874
544.827	20901.43242
545.033	20988.80984
545.239	20875.01749
545.445	21279.44495
545.651	21035.54972
545.856	20942.07213
546.062	21051.80758
546.268	21088.38871
546.474	20639.346
546.679	20635.28319
546.885	20771.39643
547.091	20883.14508
547.297	20844.53959
547.502	21053.83983
547.708	21021.32431
547.914	20980.68139
548.119	21061.96887
548.325	21068.0657
548.531	20858.76249
548.736	21305.87043
548.942	20805.93558
549.147	21139.19804
549.353	21616.92886
549.559	21381.08516
549.764	21147.32776
549.97	21039.61416
550.175	21403.44735
550.381	21631.16252
550.586	21204.23768
550.792	21580.32893
550.997	21675.8981
551.203	21635.22931
551.408	21757.24037
551.614	21663.6973
551.819	21891.46867
552.025	22206.76709
552.23	21940.28312
552.435	22182.35367
552.641	22023.67954
552.846	21643.36294
553.052	21808.08244
553.257	22227.11202
553.462	22377.67593
553.668	22296.28754
553.873	22003.33836
554.078	22446.86064
554.283	22241.35369
554.489	22452.96538
554.694	22666.65132
554.899	22202.69815
555.105	22638.15761
555.31	22540.47012
555.515	22432.61639
555.72	22534.36492
555.925	22147.7689
556.131	22796.91703
556.336	22768.42019
556.541	22715.49929
556.746	22457.03522
556.951	22703.28711
557.156	22713.46392
557.361	22967.91213
557.567	22676.82782
557.772	22770.45566
557.977	22695.14573
558.182	22866.12644
558.387	22971.98374
558.592	22974.01954
558.797	23153.18357
559.002	23210.19565
559.207	22684.96908
559.412	22949.59008
559.617	22882.41158
559.822	22933.30405
560.027	23114.49826
560.232	23238.70264
560.437	23259.06517
560.642	23287.57324
560.847	23417.90382
561.051	23564.54103
561.256	23533.99029
561.461	24037.14442
561.666	23544.17379
561.871	23430.12297
562.076	23287.57324
562.281	23698.9724
562.485	23562.50429
562.69	23369.02833
562.895	23446.41535
563.1	23796.74885
563.305	23340.51847
563.509	23729.52681
563.714	23639.90245
563.919	23835.4539
564.123	23336.44569
564.328	23780.4523
564.533	23833.41677
564.737	23517.69685
564.942	23637.8656
565.147	23672.49246
565.351	24053.44386
565.556	23717.30496
565.761	24010.65822
565.965	23949.53803
566.17	23949.53803
566.374	23945.46344
566.579	24016.77038
566.784	23861.93691
566.988	24275.54127
567.193	24253.12631
567.397	24465.0624
567.602	24513.97472
567.806	23833.41677
568.011	24379.46941
568.215	24487.48036
568.42	24542.50759
568.624	24214.41032
568.828	24507.8606
569.033	24434.49295
569.237	24709.63852
569.442	24809.51731
569.646	24043.25669
569.85	24090.11825
570.055	24642.37651
570.259	24986.86717
570.463	25082.68413
570.668	24699.44713
570.872	24458.94846
