Data from Scatter_Coeff_Baseline_USB4F045381__36__0036.txt Node

Date: Thu Feb 13 19:23:26 EST 2025
User: mmckonesweet
Spectrometer: USB4F04538
Trigger mode: 4
Integration Time (sec): 2.400000E-3
Scans to average: 1
Electric dark correction enabled: true
Nonlinearity correction enabled: true
Boxcar width: 0
XAxis mode: Wavelengths
Number of Pixels in Spectrum: 3648
>>>>>Begin Spectral Data<<<<<
345.52	66.92111
345.736	66.92111
345.952	66.92111
346.168	-48.98987
346.384	-95.33338
346.6	-19.49219
346.816	47.94895
347.032	33.19413
347.248	-2.6342
347.464	14.22533
347.68	-11.06339
347.896	16.33288
348.112	26.87099
348.328	-11.06339
348.544	-0.52684
348.76	-32.13465
348.975	-61.63024
349.191	64.813
349.407	47.94895
349.623	-25.81353
349.839	24.76332
350.055	33.19413
350.27	50.05688
350.486	52.16483
350.702	-2.6342
350.918	-11.06339
351.133	-17.38502
351.349	75.35377
351.565	35.30189
351.781	1.58054
351.996	-8.95613
352.212	-27.92059
352.428	31.08639
352.644	47.94895
352.859	-17.38502
353.075	66.92111
353.291	-27.92059
353.506	39.51749
353.722	66.92111
353.938	-15.27784
354.153	60.59685
354.369	14.22533
354.584	-11.06339
354.8	-13.17063
355.016	47.94895
355.231	22.65567
355.447	33.19413
355.662	-19.49219
355.878	-48.98987
356.093	5.79537
356.309	-0.52684
356.524	-48.98987
356.74	-4.74153
356.955	-8.95613
357.171	-6.84884
357.386	58.48881
357.602	1.58054
357.817	-8.95613
358.033	-0.52684
358.248	-30.02763
358.464	-8.95613
358.679	24.76332
358.895	-0.52684
359.11	33.19413
359.325	18.44046
359.541	28.97868
359.756	5.79537
359.972	-8.95613
360.187	-25.81353
360.402	14.22533
360.618	-8.95613
360.833	71.13739
361.048	-86.90822
361.264	-2.6342
361.479	-19.49219
361.694	-15.27784
361.909	-4.74153
362.125	14.22533
362.34	-15.27784
362.555	-27.92059
362.77	85.8951
362.986	22.65567
363.201	-2.6342
363.416	-25.81353
363.631	94.32857
363.847	31.08639
364.062	10.01031
364.277	14.22533
364.492	18.44046
364.707	41.62532
364.922	-19.49219
365.138	-27.92059
365.353	14.22533
365.568	-0.52684
365.783	22.65567
365.998	62.70491
366.213	-15.27784
366.428	39.51749
366.643	31.08639
366.858	-6.84884
367.073	92.22017
367.288	73.24557
367.503	37.40968
367.718	-19.49219
367.933	24.76332
368.148	-21.59933
368.363	7.90283
368.578	-57.41689
368.793	52.16483
369.008	54.2728
369.223	-53.20343
369.438	16.33288
369.653	81.6785
369.868	3.68794
370.083	52.16483
370.298	31.08639
370.513	-53.20343
370.728	16.33288
370.943	50.05688
371.157	-2.6342
371.372	66.92111
371.587	60.59685
371.802	12.11781
372.017	14.22533
372.232	35.30189
372.446	85.8951
372.661	39.51749
372.876	45.84105
373.091	31.08639
373.306	12.11781
373.52	31.08639
373.735	18.44046
373.95	5.79537
374.165	18.44046
374.379	75.35377
374.594	90.11179
374.809	-11.06339
375.023	-13.17063
375.238	81.6785
375.453	5.79537
375.667	-2.6342
375.882	37.40968
376.097	14.22533
376.311	-23.70644
376.526	56.38079
376.741	-4.74153
376.955	-40.56246
377.17	-40.56246
377.384	-19.49219
377.599	5.79537
377.813	62.70491
378.028	75.35377
378.242	58.48881
378.457	-82.69548
378.672	22.65567
378.886	-19.49219
379.101	7.90283
379.315	24.76332
379.53	-19.49219
379.744	-2.6342
379.958	26.87099
380.173	94.32857
380.387	22.65567
380.602	5.79537
380.816	31.08639
381.031	75.35377
381.245	-15.27784
381.459	54.2728
381.674	41.62532
381.888	33.19413
382.103	-53.20343
382.317	73.24557
382.531	41.62532
382.746	-23.70644
382.96	-23.70644
383.174	52.16483
383.388	-19.49219
383.603	-44.77622
383.817	7.90283
384.031	-17.38502
384.246	35.30189
384.46	-11.06339
384.674	52.16483
384.888	14.22533
385.103	-46.88306
385.317	-44.77622
385.531	69.02924
385.745	54.2728
385.959	66.92111
386.174	16.33288
386.388	24.76332
386.602	-36.3486
386.816	22.65567
387.03	1.58054
387.244	-82.69548
387.458	31.08639
387.672	58.48881
387.887	41.62532
388.101	-44.77622
388.315	-19.49219
388.529	20.54805
388.743	22.65567
388.957	1.58054
389.171	-6.84884
389.385	-38.45555
389.599	-8.95613
389.813	71.13739
390.027	-15.27784
390.241	39.51749
390.455	47.94895
390.669	-15.27784
390.883	10.01031
391.097	10.01031
391.311	14.22533
391.525	28.97868
391.738	56.38079
391.952	-19.49219
392.166	14.22533
392.38	31.08639
392.594	14.22533
392.808	-36.3486
393.022	16.33288
393.236	60.59685
393.449	39.51749
393.663	45.84105
393.877	54.2728
394.091	35.30189
394.305	22.65567
394.518	16.33288
394.732	18.44046
394.946	1.58054
395.16	37.40968
395.373	81.6785
395.587	-23.70644
395.801	69.02924
396.015	10.01031
396.228	31.08639
396.442	45.84105
396.656	-23.70644
396.869	-8.95613
397.083	31.08639
397.297	14.22533
397.51	43.73317
397.724	-13.17063
397.938	-11.06339
398.151	45.84105
398.365	33.19413
398.578	22.65567
398.792	41.62532
399.005	-8.95613
399.219	10.01031
399.433	-40.56246
399.646	-8.95613
399.86	39.51749
400.073	37.40968
400.287	35.30189
400.5	-27.92059
400.714	-0.52684
400.927	41.62532
401.141	-42.66935
401.354	33.19413
401.567	12.11781
401.781	-36.3486
401.994	10.01031
402.208	73.24557
402.421	37.40968
402.635	111.19658
402.848	10.01031
403.061	43.73317
403.275	16.33288
403.488	-2.6342
403.701	-2.6342
403.915	41.62532
404.128	24.76332
404.341	-17.38502
404.555	58.48881
404.768	26.87099
404.981	-11.06339
405.195	-15.27784
405.408	-23.70644
405.621	14.22533
405.834	-42.66935
406.048	33.19413
406.261	-30.02763
406.474	81.6785
406.687	16.33288
406.9	-91.12085
407.114	-8.95613
407.327	-11.06339
407.54	-44.77622
407.753	83.78679
407.966	85.8951
408.179	64.813
408.392	10.01031
408.605	5.79537
408.819	22.65567
409.032	1.58054
409.245	-19.49219
409.458	14.22533
409.671	-2.6342
409.884	-13.17063
410.097	16.33288
410.31	102.7624
410.523	75.35377
410.736	-40.56246
410.949	28.97868
411.162	24.76332
411.375	5.79537
411.588	7.90283
411.801	52.16483
412.014	66.92111
412.227	1.58054
412.44	45.84105
412.653	-8.95613
412.865	77.46199
413.078	-11.06339
413.291	-30.02763
413.504	50.05688
413.717	12.11781
413.93	-44.77622
414.143	-23.70644
414.356	-13.17063
414.568	-11.06339
414.781	-48.98987
414.994	31.08639
415.207	-19.49219
415.42	37.40968
415.632	33.19413
415.845	-19.49219
416.058	-61.63024
416.271	81.6785
416.483	-30.02763
416.696	111.19658
416.909	56.38079
417.121	-23.70644
417.334	64.813
417.547	-19.49219
417.759	69.02924
417.972	14.22533
418.185	-11.06339
418.397	-19.49219
418.61	22.65567
418.823	-13.17063
419.035	7.90283
419.248	-11.06339
419.46	-0.52684
419.673	-25.81353
419.885	39.51749
420.098	10.01031
420.311	14.22533
420.523	71.13739
420.736	31.08639
420.948	28.97868
421.161	26.87099
421.373	47.94895
421.586	58.48881
421.798	50.05688
422.01	-44.77622
422.223	43.73317
422.435	43.73317
422.648	24.76332
422.86	-11.06339
423.073	56.38079
423.285	52.16483
423.497	-17.38502
423.71	5.79537
423.922	106.97945
424.134	56.38079
424.347	14.22533
424.559	41.62532
424.771	-34.24164
424.984	24.76332
425.196	39.51749
425.408	-19.49219
425.621	54.2728
425.833	85.8951
426.045	-2.6342
426.257	24.76332
426.47	5.79537
426.682	-44.77622
426.894	37.40968
427.106	-19.49219
427.318	81.6785
427.531	47.94895
427.743	41.62532
427.955	130.17476
428.167	64.813
428.379	41.62532
428.591	-4.74153
428.804	5.79537
429.016	47.94895
429.228	24.76332
429.44	50.05688
429.652	31.08639
429.864	64.813
430.076	81.6785
430.288	-23.70644
430.5	39.51749
430.712	39.51749
430.924	56.38079
431.136	43.73317
431.348	106.97945
431.56	5.79537
431.772	24.76332
431.984	-15.27784
432.196	22.65567
432.408	22.65567
432.62	-11.06339
432.832	64.813
433.044	31.08639
433.256	16.33288
433.468	10.01031
433.679	50.05688
433.891	-17.38502
434.103	81.6785
434.315	58.48881
434.527	-2.6342
434.739	18.44046
434.95	-48.98987
435.162	31.08639
435.374	73.24557
435.586	-27.92059
435.798	5.79537
436.009	-2.6342
436.221	-27.92059
436.433	-11.06339
436.645	39.51749
436.856	39.51749
437.068	85.8951
437.28	37.40968
437.491	20.54805
437.703	14.22533
437.915	64.813
438.126	7.90283
438.338	-0.52684
438.55	20.54805
438.761	115.4138
438.973	58.48881
439.184	104.87091
439.396	16.33288
439.608	-19.49219
439.819	-23.70644
440.031	60.59685
440.242	24.76332
440.454	64.813
440.665	75.35377
440.877	-19.49219
441.088	-17.38502
441.3	10.01031
441.511	14.22533
441.723	3.68794
441.934	33.19413
442.146	24.76332
442.357	16.33288
442.569	90.11179
442.78	83.78679
442.991	47.94895
443.203	69.02924
443.414	3.68794
443.626	-15.27784
443.837	69.02924
444.048	-19.49219
444.26	22.65567
444.471	10.01031
444.682	33.19413
444.894	47.94895
445.105	-11.06339
445.316	52.16483
445.528	43.73317
445.739	-8.95613
445.95	69.02924
446.161	14.22533
446.373	58.48881
446.584	18.44046
446.795	62.70491
447.006	22.65567
447.217	71.13739
447.429	7.90283
447.64	18.44046
447.851	10.01031
448.062	41.62532
448.273	37.40968
448.484	56.38079
448.695	28.97868
448.907	1.58054
449.118	-27.92059
449.329	24.76332
449.54	26.87099
449.751	-15.27784
449.962	24.76332
450.173	10.01031
450.384	39.51749
450.595	73.24557
450.806	7.90283
451.017	60.59685
451.228	26.87099
451.439	-19.49219
451.65	-6.84884
451.861	31.08639
452.072	37.40968
452.283	-0.52684
452.494	66.92111
452.705	16.33288
452.915	90.11179
453.126	77.46199
453.337	-0.52684
453.548	-34.24164
453.759	-27.92059
453.97	37.40968
454.181	10.01031
454.391	66.92111
454.602	16.33288
454.813	10.01031
455.024	14.22533
455.235	31.08639
455.445	41.62532
455.656	-27.92059
455.867	26.87099
456.078	39.51749
456.288	-15.27784
456.499	37.40968
456.71	92.22017
456.921	41.62532
457.131	-11.06339
457.342	28.97868
457.553	35.30189
457.763	35.30189
457.974	20.54805
458.184	98.54544
458.395	64.813
458.606	47.94895
458.816	73.24557
459.027	60.59685
459.237	73.24557
459.448	66.92111
459.659	26.87099
459.869	85.8951
460.08	-23.70644
460.29	22.65567
460.501	16.33288
460.711	43.73317
460.922	-15.27784
461.132	-21.59933
461.343	5.79537
461.553	45.84105
461.764	-11.06339
461.974	81.6785
462.184	5.79537
462.395	31.08639
462.605	35.30189
462.816	85.8951
463.026	56.38079
463.236	41.62532
463.447	64.813
463.657	47.94895
463.867	62.70491
464.078	43.73317
464.288	52.16483
464.498	47.94895
464.709	7.90283
464.919	98.54544
465.129	94.32857
465.339	119.63111
465.55	50.05688
465.76	117.52244
465.97	83.78679
466.18	104.87091
466.391	58.48881
466.601	98.54544
466.811	69.02924
467.021	43.73317
467.231	47.94895
467.441	33.19413
467.651	18.44046
467.862	64.813
468.072	56.38079
468.282	45.84105
468.492	54.2728
468.702	54.2728
468.912	73.24557
469.122	98.54544
469.332	64.813
469.542	45.84105
469.752	90.11179
469.962	60.59685
470.172	132.28355
470.382	98.54544
470.592	56.38079
470.802	56.38079
471.012	39.51749
471.222	81.6785
471.432	66.92111
471.642	47.94895
471.852	62.70491
472.062	134.39237
472.272	60.59685
472.482	85.8951
472.691	77.46199
472.901	123.8485
473.111	83.78679
473.321	100.65391
473.531	106.97945
473.741	83.78679
473.95	69.02924
474.16	113.30518
474.37	117.52244
474.58	115.4138
474.79	123.8485
474.999	77.46199
475.209	140.71894
475.419	140.71894
475.628	174.4639
475.838	166.02716
476.048	92.22017
476.258	98.54544
476.467	77.46199
476.677	161.80891
476.886	144.93677
477.096	151.26366
477.306	229.31064
477.515	174.4639
477.725	161.80891
477.935	142.82785
478.144	195.55718
478.354	254.62902
478.563	233.53017
478.773	201.88557
478.982	292.61173
479.192	174.4639
479.401	235.63997
479.611	301.05315
479.82	201.88557
480.03	157.59075
480.239	254.62902
480.449	277.83996
480.658	191.33836
480.868	254.62902
481.077	326.37915
481.287	241.96948
481.496	286.28086
481.705	301.05315
481.915	292.61173
482.124	330.6004
482.333	372.81673
482.543	377.03874
482.752	328.48976
482.961	246.18925
483.171	305.27397
483.38	415.03981
483.589	353.81853
483.799	267.28925
484.008	436.15378
484.217	402.37219
484.426	415.03981
484.636	461.49263
484.845	404.48342
485.054	385.48296
485.263	436.15378
485.472	446.71136
485.682	537.52208
485.891	493.16926
486.1	531.18558
486.309	469.9394
486.518	503.72888
486.727	554.42003
486.936	531.18558
487.146	541.74649
487.355	550.19546
487.564	571.31885
487.773	638.92247
487.982	484.72183
488.191	524.84921
488.4	596.66867
488.609	708.65175
488.818	662.16415
489.027	683.29419
489.236	748.80442
489.445	757.2581
489.654	704.42538
489.863	672.72903
490.072	712.87816
490.281	856.60045
490.49	772.05243
490.698	833.34828
490.907	846.03115
491.116	875.62572
491.325	803.75619
491.534	955.96179
491.743	850.25884
491.952	907.336
492.16	900.9938
492.369	1010.93454
492.578	873.51177
492.787	884.08162
492.996	1000.36252
493.204	1093.40136
493.413	1087.05747
493.622	1068.02606
493.831	1074.36982
494.039	1036.30803
494.248	1078.59901
494.457	1154.72785
494.665	1163.18696
494.874	1207.59829
495.083	1131.46563
495.291	1173.76094
495.5	1171.64614
495.709	1129.35091
495.917	1146.2688
496.126	1328.14995
496.335	1264.7007
496.543	1338.72499
496.752	1349.30007
496.96	1408.52104
497.169	1256.24095
497.377	1419.09628
497.586	1133.58036
497.794	1467.74247
498.003	1309.11498
498.211	1402.1759
498.42	1372.56536
498.628	1531.1938
498.837	1385.25557
499.045	1672.89745
499.254	1476.20267
499.462	1611.5641
499.671	1622.13896
499.879	1630.5988
500.087	1522.73366
500.296	1742.68771
500.504	1679.24216
500.713	1687.70173
500.921	1533.30884
501.129	1681.35705
501.338	1658.09304
501.546	1901.28602
501.754	1795.55657
501.962	1797.67127
502.171	1668.66763
502.379	1907.62938
502.587	1670.78254
502.795	2011.2303
503.004	1791.32715
503.212	2004.88781
503.42	1856.88112
503.628	1920.31597
503.837	1850.53738
504.045	2051.39797
504.253	2059.85401
504.461	2095.79087
504.669	1939.34547
504.877	2091.56312
505.085	2066.19596
505.294	2182.45305
505.502	2106.36013
505.71	2102.13245
505.918	1924.54479
506.126	2125.38432
506.334	2093.677
506.542	2298.68492
506.75	2148.63525
506.958	2296.57186
507.166	2129.61184
507.374	2262.76161
507.582	2296.57186
507.79	2305.02405
507.998	2275.44073
508.206	2664.08545
508.414	2300.79797
508.622	2440.23747
508.83	2279.66703
509.037	2490.93141
509.245	2243.74231
509.453	2427.56301
509.661	2524.72379
509.869	2467.69747
510.077	2385.31205
510.285	2609.19171
510.492	2408.5506
510.7	2628.19434
510.908	2594.41121
511.116	2562.7367
511.324	2642.97347
511.531	2735.85661
511.739	2634.52833
511.947	2691.52913
512.155	2619.74885
512.362	2862.4739
512.57	2873.02308
512.778	2807.61248
512.985	2672.52989
513.193	2837.15442
513.401	2723.19221
513.608	2883.5719
513.816	2666.19658
514.024	2759.07345
514.231	2649.3072
514.439	2898.33965
514.646	2879.35241
514.854	2940.5293
515.061	2771.7365
515.269	2894.12037
515.477	2803.39198
515.684	3014.34692
515.892	2902.55888
516.099	3075.49595
516.307	3005.91156
516.514	3195.64668
516.722	2963.73111
516.929	3107.11961
517.136	3212.50571
517.344	3166.14083
517.551	2974.27678
517.759	3096.57878
517.966	3233.57802
518.173	3305.2113
518.381	3100.79516
518.588	3307.31787
518.796	3067.06238
519.003	3519.99053
519.21	3242.00648
519.418	3366.29466
519.625	3290.46487
519.832	3431.57441
520.039	3395.77794
520.247	3541.03726
520.454	3421.04657
520.661	3620.99794
520.868	3391.56625
521.076	3444.20723
521.283	3273.61079
521.49	3568.39525
521.697	3471.57613
521.904	3597.8542
522.112	3439.99636
522.319	3742.99061
522.526	3461.04999
522.733	3766.11985
522.94	3610.47834
523.147	3602.06232
523.354	3427.36332
523.561	3730.37367
523.768	3587.33357
523.975	3879.62892
524.183	3587.33357
524.39	3734.5794
524.597	3890.13609
524.804	3913.2501
525.011	3679.89898
525.218	4003.58139
525.425	3984.67796
525.632	3864.91804
525.838	3932.15975
526.045	4024.58326
526.252	3852.30793
526.459	3990.97929
526.666	4016.18276
526.873	4226.09546
527.08	4024.58326
527.287	4200.91703
527.494	3999.38077
527.701	4471.42288
527.907	4242.87938
528.114	4326.77843
528.321	4203.01535
528.528	4236.58557
528.735	4175.73555
528.941	4356.13495
529.148	3936.36167
529.355	4295.32031
529.562	4203.01535
529.768	4507.04391
529.975	4504.94873
530.182	4421.12355
530.388	4322.58429
530.595	4479.80487
530.802	4312.09858
531.008	4620.15061
531.215	4630.62016
531.422	4486.09113
531.628	4670.39936
531.835	4777.13492
532.042	4511.2342
532.248	4716.44936
532.455	4538.46893
532.661	4699.70517
532.868	4603.39815
533.074	4871.26436
533.281	4695.51889
533.487	4791.7803
533.694	4636.90163
533.9	4846.16769
534.107	4678.7729
534.313	4856.62503
534.52	4720.63518
534.726	4881.72033
534.933	4919.3571
535.139	4973.70819
535.345	4731.09934
535.552	5205.56985
535.758	4881.72033
535.965	5122.04904
536.171	5057.29485
536.377	5167.99009
536.584	4925.62917
536.79	5124.13751
536.996	5393.35505
537.203	5090.71915
537.409	4975.79831
537.615	5157.54993
537.821	5034.3122
538.028	5253.57742
538.234	5124.13751
538.44	5403.78199
538.646	5318.26372
538.853	5391.26959
539.059	5138.75618
539.265	5476.75416
539.471	5364.15648
539.677	5326.6087
539.883	5405.86731
540.09	5472.5851
540.296	5324.52249
540.502	5455.90791
540.708	5457.99264
540.914	5751.70387
541.12	5403.78199
541.326	5714.23493
541.532	5595.53284
541.738	5539.2788
541.944	5430.8893
542.15	5853.66391
542.356	5905.66251
542.562	5990.90831
542.768	5747.54103
542.974	5953.48821
543.18	5959.72542
543.386	6028.32078
543.592	5843.26242
543.798	6113.50959
544.004	5874.46512
544.21	6013.77239
544.415	5882.78495
544.621	5928.53723
544.827	6036.63362
545.033	6308.67151
545.239	5984.67216
545.445	6358.46693
545.651	5643.4394
545.856	6275.46708
546.062	6142.5894
546.268	6256.78696
546.474	6080.26988
546.679	6171.6646
546.885	5957.64637
547.091	5972.19921
547.297	5926.45783
547.502	6007.53701
547.708	6132.20428
547.914	6138.43542
548.119	6074.03677
548.325	6250.55983
548.531	6115.58687
548.736	6227.72522
548.942	6134.28135
549.147	6155.05076
549.353	6354.31783
549.559	6319.04666
549.764	6258.86262
549.97	6462.16426
550.175	6254.71127
550.381	6892.92514
550.586	6269.24058
550.792	6482.89674
550.997	6329.42124
551.203	6569.94786
551.408	6741.85773
551.614	6596.88399
551.819	6603.09946
552.025	6545.08028
552.23	6543.00783
552.435	6694.23592
552.641	6729.43582
552.846	6690.09432
553.052	6596.88399
553.257	6847.41075
553.462	6644.53065
553.668	7021.13402
553.873	6899.13079
554.078	7149.25655
554.283	7043.87172
554.489	7050.07244
554.694	6719.08359
554.899	7099.67092
555.105	7008.7305
555.31	7099.67092
555.515	6934.29233
555.72	7165.78224
555.925	6988.05616
556.131	7198.82936
556.336	7178.17557
556.541	7066.6067
556.746	7161.65095
556.951	6990.1237
557.156	7202.95985
557.361	7277.29357
557.567	7134.7954
557.772	7079.00645
557.977	6882.58192
558.182	6994.2587
558.387	7337.15277
558.592	7291.74404
558.797	7083.13953
559.002	7549.60808
559.207	7273.16467
559.412	7430.00134
559.617	7256.64818
559.822	7103.80355
560.027	7260.77744
560.232	7310.32162
560.437	7281.42239
560.642	7483.62713
560.847	7285.55111
561.051	7520.74412
561.256	7256.64818
561.461	7339.21655
561.666	7681.50429
561.871	7531.05316
562.076	7720.64426
562.281	7728.88328
562.485	7450.62837
562.69	7714.46477
562.895	7547.54651
563.1	7588.77388
563.305	7312.38569
563.509	7743.30076
563.714	7580.52909
563.919	7671.20303
564.123	7506.31056
564.328	7621.74962
564.533	7677.38385
564.737	7803.01938
564.942	7638.23545
565.147	8136.3008
565.351	7842.13586
565.556	7969.72715
565.761	7772.13264
565.965	7856.5453
566.17	7768.01405
566.374	7883.303
566.579	7813.31392
566.784	8101.35188
566.988	8121.91077
567.193	8095.18382
567.397	7912.11508
567.602	7903.88347
567.806	7938.86554
568.011	8047.88934
568.215	8234.94896
568.42	8204.12632
568.624	7924.46188
568.828	8142.46765
569.033	7763.89538
569.237	8111.63157
569.442	8288.36433
569.646	7973.84168
569.85	7936.80794
570.055	8458.79444
570.259	8095.18382
570.463	8540.88215
570.668	8113.68745
570.872	8224.67524
571.076	8177.40977
571.281	8495.73767
571.485	8214.40103
571.689	8352.03458
571.893	8331.49784
572.098	8354.08815
572.302	8542.93395
572.506	8553.19269
572.71	8150.68984
572.914	8464.95207
573.119	8514.20698
573.323	8663.95711
573.527	8261.65831
573.731	8561.39933
573.935	8401.31485
574.139	8715.21856
574.343	8458.79444
574.547	8458.79444
574.751	8524.46704
574.955	8614.73521
575.159	8430.05653
575.364	8647.551
575.568	8702.91687
575.772	8704.9672
575.976	8723.41933
576.18	8643.44929
576.383	8789.01487
576.587	8813.60839
576.791	8780.81645
576.995	8901.71383
577.199	8676.26092
577.403	8862.78762
577.607	9225.17048
577.811	9094.20217
