Data from Scatter_Coeff_Baseline_USB4F045381__44__0044.txt Node

Date: Thu Feb 13 19:30:21 EST 2025
User: mmckonesweet
Spectrometer: USB4F04538
Trigger mode: 4
Integration Time (sec): 2.400000E-3
Scans to average: 1
Electric dark correction enabled: true
Nonlinearity correction enabled: true
Boxcar width: 0
XAxis mode: Wavelengths
Number of Pixels in Spectrum: 3648
>>>>>Begin Spectral Data<<<<<
345.52	-10.53658
345.736	-10.53658
345.952	-10.53658
346.168	48.47593
346.384	-18.9654
346.6	-27.39383
346.816	-8.42931
347.032	4.2148
347.248	-33.71489
347.464	4.2148
347.68	71.66443
347.896	-4.2147
348.112	101.18103
348.328	-61.10358
348.544	-18.9654
348.76	29.5056
348.975	-56.89021
349.191	-50.56997
349.407	0
349.623	67.44814
349.839	-4.2147
350.055	-4.2147
350.27	-16.85823
350.486	-16.85823
350.702	37.93663
350.918	-52.67674
351.133	14.75222
351.349	-54.78349
351.565	-29.50088
351.781	29.5056
351.996	59.01582
352.212	71.66443
352.428	-48.46317
352.644	29.5056
352.859	-80.06246
353.075	56.90779
353.291	-21.07254
353.506	46.36803
353.722	8.4297
353.938	-16.85823
354.153	29.5056
354.369	-29.50088
354.584	88.53052
354.8	-23.17966
355.016	4.2148
355.231	0
355.447	-33.71489
355.662	63.23193
355.878	25.29023
356.093	-4.2147
356.309	37.93663
356.524	0
356.74	-4.2147
356.955	-10.53658
357.171	-42.14263
357.386	27.39791
357.602	25.29023
357.817	18.96735
358.033	-46.35635
358.248	65.34002
358.464	18.96735
358.679	-10.53658
358.895	44.26014
359.11	12.64469
359.325	71.66443
359.541	0
359.756	54.79979
359.972	46.36803
360.187	124.37568
360.402	25.29023
360.618	0
360.833	77.98905
361.048	-4.2147
361.264	12.64469
361.479	-67.42343
361.694	82.20557
361.909	54.79979
362.125	-2.10736
362.34	37.93663
362.555	54.79979
362.77	14.75222
362.986	-37.92881
363.201	-33.71489
363.416	-63.21022
363.631	-4.2147
363.847	-8.42931
364.062	69.55627
364.277	2.10739
364.492	-48.46317
364.707	-18.9654
364.922	31.61332
365.138	16.85977
365.353	54.79979
365.568	-42.14263
365.783	-4.2147
365.998	-23.17966
366.213	-33.71489
366.428	2.10739
366.643	-12.64382
366.858	21.07496
367.073	50.58386
367.288	4.2148
367.503	-25.28676
367.718	31.61332
367.933	-8.42931
368.148	31.61332
368.363	-29.50088
368.578	0
368.793	12.64469
369.008	-18.9654
369.223	44.26014
369.438	-23.17966
369.653	10.53718
369.868	-14.75104
370.083	27.39791
370.298	35.82884
370.513	61.12386
370.728	35.82884
370.943	48.47593
371.157	-71.63655
371.372	-12.64382
371.587	-23.17966
371.802	0
372.017	126.48442
372.232	23.18258
372.446	61.12386
372.661	-25.28676
372.876	4.2148
373.091	63.23193
373.306	-50.56997
373.52	-18.9654
373.735	65.34002
373.95	40.04444
374.165	73.77262
374.379	16.85977
374.594	-46.35635
374.809	59.01582
375.023	25.29023
375.238	31.61332
375.453	23.18258
375.667	-4.2147
375.882	14.75222
376.097	-25.28676
376.311	-29.50088
376.526	21.07496
376.741	44.26014
376.955	71.66443
377.17	52.69182
377.384	50.58386
377.599	31.61332
377.813	40.04444
378.028	14.75222
378.242	101.18103
378.457	-84.27527
378.672	-46.35635
378.886	18.96735
379.101	37.93663
379.315	4.2148
379.53	46.36803
379.744	59.01582
379.958	-61.10358
380.173	31.61332
380.387	63.23193
380.602	75.88082
380.816	29.5056
381.031	46.36803
381.245	40.04444
381.459	4.2148
381.674	29.5056
381.888	42.15228
382.103	-103.2316
382.317	-42.14263
382.531	52.69182
382.746	42.15228
382.96	21.07496
383.174	14.75222
383.388	37.93663
383.603	56.90779
383.817	63.23193
384.031	29.5056
384.246	-2.10736
384.46	29.5056
384.674	56.90779
384.888	21.07496
385.103	8.4297
385.317	96.96411
385.531	21.07496
385.745	-21.07254
385.959	-33.71489
386.174	0
386.388	18.96735
386.602	67.44814
386.816	42.15228
387.03	14.75222
387.244	-25.28676
387.458	10.53718
387.672	-46.35635
387.887	82.20557
388.101	-4.2147
388.315	50.58386
388.529	-4.2147
388.743	80.0973
388.957	50.58386
389.171	44.26014
389.385	56.90779
389.599	54.79979
389.813	40.04444
390.027	14.75222
390.241	75.88082
390.455	-46.35635
390.669	25.29023
390.883	-8.42931
391.097	23.18258
391.311	37.93663
391.525	0
391.738	31.61332
391.952	27.39791
392.166	40.04444
392.38	35.82884
392.594	25.29023
392.808	109.61514
393.022	16.85977
393.236	23.18258
393.449	-2.10736
393.663	25.29023
393.877	33.72107
394.091	18.96735
394.305	71.66443
394.518	14.75222
394.732	27.39791
394.946	0
395.16	8.4297
395.373	-33.71489
395.587	35.82884
395.801	12.64469
396.015	4.2148
396.228	0
396.442	4.2148
396.656	8.4297
396.869	56.90779
397.083	14.75222
397.297	143.35507
397.51	-14.75104
397.724	4.2148
397.938	-31.6079
398.151	40.04444
398.365	-12.64382
398.578	54.79979
398.792	0
399.005	4.2148
399.219	0
399.433	65.34002
399.646	25.29023
399.86	-27.39383
400.073	67.44814
400.287	-29.50088
400.5	31.61332
400.714	-12.64382
400.927	29.5056
401.141	-4.2147
401.354	56.90779
401.567	4.2148
401.781	33.72107
401.994	8.4297
402.208	4.2148
402.421	-16.85823
402.635	42.15228
402.848	12.64469
403.061	-4.2147
403.275	59.01582
403.488	-18.9654
403.701	8.4297
403.915	0
404.128	77.98905
404.341	21.07496
404.555	50.58386
404.768	23.18258
404.981	113.83233
405.195	46.36803
405.408	33.72107
405.621	67.44814
405.834	27.39791
406.048	118.04961
406.261	50.58386
406.474	37.93663
406.687	48.47593
406.9	56.90779
407.114	-12.64382
407.327	21.07496
407.54	50.58386
407.753	107.50658
407.966	-4.2147
408.179	54.79979
408.392	-18.9654
408.605	12.64469
408.819	46.36803
409.032	-29.50088
409.245	46.36803
409.458	37.93663
409.671	71.66443
409.884	40.04444
410.097	4.2148
410.31	59.01582
410.523	90.63889
410.736	16.85977
410.949	10.53718
411.162	54.79979
411.375	16.85977
411.588	56.90779
411.801	23.18258
412.014	37.93663
412.227	18.96735
412.44	80.0973
412.653	29.5056
412.865	48.47593
413.078	46.36803
413.291	37.93663
413.504	-12.64382
413.717	14.75222
413.93	-21.07254
414.143	90.63889
414.356	82.20557
414.568	16.85977
414.781	46.36803
414.994	107.50658
415.207	-16.85823
415.42	-12.64382
415.632	35.82884
415.845	16.85977
416.058	56.90779
416.271	-52.67674
416.483	-33.71489
416.696	8.4297
416.909	59.01582
417.121	-4.2147
417.334	-113.76198
417.547	50.58386
417.759	6.32224
417.972	42.15228
418.185	54.79979
418.397	56.90779
418.61	-12.64382
418.823	4.2148
419.035	-16.85823
419.248	-46.35635
419.46	2.10739
419.673	65.34002
419.885	46.36803
420.098	21.07496
420.311	29.5056
420.523	-4.2147
420.736	61.12386
420.948	-29.50088
421.161	21.07496
421.373	-16.85823
421.586	-4.2147
421.798	54.79979
422.01	59.01582
422.223	0
422.435	101.18103
422.648	16.85977
422.86	63.23193
423.073	2.10739
423.285	21.07496
423.497	73.77262
423.71	82.20557
423.922	73.77262
424.134	46.36803
424.347	-6.32202
424.559	-2.10736
424.771	71.66443
424.984	-18.9654
425.196	-58.9969
425.408	42.15228
425.621	101.18103
425.833	18.96735
426.045	77.98905
426.257	-37.92881
426.47	69.55627
426.682	29.5056
426.894	-4.2147
427.106	-29.50088
427.318	-16.85823
427.531	46.36803
427.743	54.79979
427.955	77.98905
428.167	4.2148
428.379	37.93663
428.591	96.96411
428.804	44.26014
429.016	80.0973
429.228	0
429.44	42.15228
429.652	-8.42931
429.864	0
430.076	37.93663
430.288	86.42218
430.5	21.07496
430.712	101.18103
430.924	33.72107
431.136	-31.6079
431.348	75.88082
431.56	71.66443
431.772	-8.42931
431.984	69.55627
432.196	73.77262
432.408	33.72107
432.62	99.07256
432.832	42.15228
433.044	71.66443
433.256	54.79979
433.468	63.23193
433.679	80.0973
433.891	4.2148
434.103	16.85977
434.315	0
434.527	48.47593
434.739	-27.39383
434.95	21.07496
435.162	109.61514
435.374	21.07496
435.586	80.0973
435.798	50.58386
436.009	92.74727
436.221	8.4297
436.433	46.36803
436.645	96.96411
436.856	16.85977
437.068	0
437.28	37.93663
437.491	14.75222
437.703	2.10739
437.915	50.58386
438.126	29.5056
438.338	105.39804
438.55	84.31387
438.761	37.93663
438.973	42.15228
439.184	-21.07254
439.396	101.18103
439.608	6.32224
439.819	120.15828
440.031	84.31387
440.242	-12.64382
440.454	92.74727
440.665	88.53052
440.877	29.5056
441.088	14.75222
441.3	65.34002
441.511	82.20557
441.723	46.36803
441.934	115.94096
442.146	46.36803
442.357	67.44814
442.569	105.39804
442.78	40.04444
442.991	29.5056
443.203	128.59318
443.414	120.15828
443.626	52.69182
443.837	54.79979
444.048	42.15228
444.26	4.2148
444.471	67.44814
444.682	33.72107
444.894	54.79979
445.105	25.29023
445.316	88.53052
445.528	33.72107
445.739	-2.10736
445.95	25.29023
446.161	96.96411
446.373	48.47593
446.584	33.72107
446.795	73.77262
447.006	14.75222
447.217	59.01582
447.429	128.59318
447.64	88.53052
447.851	54.79979
448.062	35.82884
448.273	42.15228
448.484	71.66443
448.695	29.5056
448.907	151.79091
449.118	46.36803
449.329	63.23193
449.54	4.2148
449.751	50.58386
449.962	67.44814
450.173	103.28953
450.384	-73.74306
450.595	80.0973
450.806	92.74727
451.017	80.0973
451.228	50.58386
451.439	82.20557
451.65	27.39791
451.861	42.15228
452.072	-16.85823
452.283	48.47593
452.494	101.18103
452.705	172.88198
452.915	44.26014
453.126	96.96411
453.337	46.36803
453.548	143.35507
453.759	-12.64382
453.97	122.26697
454.181	80.0973
454.391	56.90779
454.602	69.55627
454.813	177.10045
455.024	111.72373
455.235	46.36803
455.445	61.12386
455.656	4.2148
455.867	21.07496
456.078	107.50658
456.288	75.88082
456.499	128.59318
456.71	139.13728
456.921	164.4453
457.131	90.63889
457.342	88.53052
457.553	75.88082
457.763	59.01582
457.974	170.77278
458.184	82.20557
458.395	86.42218
458.606	44.26014
458.816	96.96411
459.027	158.11802
459.237	130.70195
459.448	101.18103
459.659	71.66443
459.869	107.50658
460.08	141.24617
460.29	217.1799
460.501	143.35507
460.711	139.13728
460.922	92.74727
461.132	172.88198
461.343	82.20557
461.553	174.9912
461.764	170.77278
461.974	109.61514
462.184	77.98905
462.395	221.39921
462.605	193.97512
462.816	153.89993
463.026	156.00896
463.236	141.24617
463.447	126.48442
463.657	158.11802
463.867	162.33619
464.078	172.88198
464.288	189.75633
464.498	215.07028
464.709	221.39921
464.919	164.4453
465.129	149.68192
465.339	234.05762
465.55	200.30345
465.76	223.5089
465.97	236.16742
466.18	202.41294
466.391	322.68561
466.601	164.4453
466.811	234.05762
467.021	278.36751
467.231	303.69116
467.441	286.80843
467.651	250.93658
467.862	276.25732
468.072	333.23872
468.282	272.03701
468.492	326.9068
468.702	310.02248
468.912	364.90064
469.122	269.92688
469.332	367.01157
469.542	314.24345
469.752	481.02615
469.962	276.25732
470.172	324.7962
470.382	379.67753
470.592	383.89964
470.802	371.23349
471.012	367.01157
471.222	462.02054
471.432	493.69724
471.642	472.57906
471.852	538.05013
472.062	489.47348
472.272	569.73455
472.482	658.46652
472.691	702.8405
472.901	512.70485
473.111	652.12779
473.321	656.3536
473.531	573.95937
473.741	654.24069
473.95	698.61419
474.16	679.59635
474.37	734.53922
474.58	654.24069
474.79	835.99052
474.999	755.67302
475.209	819.08044
475.419	814.85301
475.628	909.9786
475.838	960.71887
476.048	795.83004
476.258	886.72411
476.467	1072.78387
476.677	1131.99431
476.886	1174.28964
477.096	1102.38862
477.306	1043.18016
477.515	1017.80644
477.725	1180.63408
477.935	1043.18016
478.144	1212.35674
478.354	1345.59879
478.563	1341.36876
478.773	1411.16485
478.982	1288.49394
479.192	1375.20915
479.401	1436.54545
479.611	1626.89762
479.82	1542.29771
480.03	1593.05799
480.239	1711.49401
480.449	1660.73669
480.658	1789.74111
480.868	1832.03457
481.077	1914.50131
481.287	1829.91994
481.496	1751.67558
481.705	1965.24597
481.915	1988.50279
482.124	1882.78425
482.333	1965.24597
482.543	2049.81245
482.752	2125.91276
482.961	2163.9592
483.171	2392.17812
483.38	2144.93631
483.589	2134.36775
483.799	2356.26213
484.008	2590.71599
484.217	2421.75375
484.426	2603.38516
484.636	2561.15291
484.845	2734.27359
485.054	2643.50129
485.263	2681.50189
485.472	2573.82309
485.682	2789.14739
485.891	2744.82695
486.1	2780.70586
486.309	2848.23194
486.518	3006.43878
486.727	2879.87985
486.936	2928.40038
487.146	2829.24167
487.355	3046.5045
487.564	3054.93868
487.773	3219.35439
487.982	3248.8544
488.191	3250.96142
488.4	3156.12919
488.609	3522.62147
488.818	3278.35111
489.027	3337.33454
489.236	3495.25829
489.445	3653.07982
489.654	3484.73317
489.863	3728.79651
490.072	3316.27057
490.281	3619.42003
490.49	3648.87261
490.698	3749.82449
490.907	3642.56165
491.116	3867.54505
491.325	3842.32443
491.534	4140.58132
491.743	3892.7628
491.952	4077.60382
492.16	3817.10095
492.369	3974.70048
492.578	4008.30699
492.787	4211.93297
492.996	4140.58132
493.204	4211.93297
493.413	4182.55583
493.622	4392.30054
493.831	4297.942
494.039	4341.98144
494.248	4505.47253
494.457	4660.45532
494.665	4603.92169
494.874	4568.31808
495.083	4551.56122
495.291	4861.33065
495.5	4509.66285
495.709	4698.13532
495.917	4748.36396
496.126	4819.49887
496.335	4976.32084
496.543	4857.14788
496.752	4806.94756
496.96	5049.46017
497.169	5032.7451
497.377	5204.00417
497.586	4951.23799
497.794	5189.3906
498.003	5204.00417
498.211	5112.12847
498.42	5039.01343
498.628	5423.07029
498.837	5110.03987
499.045	5420.98517
499.254	5158.07195
499.462	5598.13678
499.671	5387.61998
499.879	5491.86622
500.087	5471.02168
500.296	5666.86741
500.504	5362.59214
500.713	5629.38116
500.921	5650.2078
501.129	5698.10011
501.338	5573.13746
501.546	5752.22422
501.754	5566.8871
501.962	5829.21948
502.171	5679.36113
502.379	5822.97782
502.587	5820.89722
502.795	5960.24518
503.004	5812.57459
503.212	6149.33941
503.42	5987.27058
503.628	6153.49314
503.837	5756.38695
504.045	6265.60836
504.253	6273.91048
504.461	6222.01612
504.669	6340.31391
504.877	6280.13682
505.085	6385.95239
505.294	6454.38898
505.502	6057.93357
505.71	6485.48814
505.918	6132.72355
506.126	6398.39729
506.334	6269.75947
506.542	6659.54718
506.75	6439.87424
506.958	6638.83441
507.166	6545.59839
507.374	6742.37529
507.582	6444.02142
507.79	6802.40275
507.998	6555.96026
508.206	6833.4439
508.414	6481.34189
508.622	6992.70808
508.83	6758.93651
509.037	6920.33191
509.245	6713.38963
509.453	6914.12695
509.661	6814.81982
509.869	6994.77557
510.077	6821.02806
510.285	7098.12116
510.492	6783.77559
510.7	7067.12337
510.908	7036.12054
511.116	7201.41093
511.324	7182.82287
511.531	7065.05667
511.739	7081.58963
511.947	7358.30549
512.155	6951.35366
512.362	7457.33169
512.57	7131.17994
512.778	7222.06222
512.985	7269.55181
513.193	7335.60492
513.401	7374.81334
513.608	7473.8312
513.816	7370.68651
514.024	7477.95586
514.231	7354.17831
514.439	7424.32852
514.646	7638.75061
514.854	7630.50789
515.061	7576.92189
515.269	7620.20401
515.477	7527.44506
515.684	7815.88747
515.892	7723.21899
516.099	7721.1592
516.307	7791.18002
516.514	7933.20708
516.722	7684.07952
516.929	8079.24883
517.136	7964.06953
517.344	7984.64194
517.551	7931.14942
517.759	8046.34695
517.966	8095.69783
518.173	7931.14942
518.381	8091.5857
518.588	8231.35321
518.796	8212.85986
519.003	8108.03374
519.21	8031.95075
519.418	8182.03403
519.625	8015.49674
519.832	8336.11878
520.039	8276.55246
520.247	8295.04032
520.454	8231.35321
520.661	8576.27312
520.868	8533.18772
521.076	8639.86023
521.283	8323.79606
521.49	8514.71999
521.697	8639.86023
521.904	8851.00604
522.112	8518.82406
522.319	8658.31765
522.526	8334.06504
522.733	8777.22955
522.94	8748.53233
523.147	8752.63216
523.354	8531.13582
523.561	8918.61399
523.768	8855.10405
523.975	9072.1967
524.183	8912.46862
524.39	9012.82309
524.597	9053.77197
524.804	9070.14958
525.011	9082.43205
525.218	9166.3457
525.425	9190.90035
525.632	8945.24209
525.838	8969.81922
526.045	9323.86257
526.252	9190.90035
526.459	9348.40174
526.666	9417.91655
526.873	9542.58739
527.08	9652.90247
527.287	9571.19199
527.494	9102.90146
527.701	9620.22128
527.907	9575.27811
528.114	9916.25192
528.321	9444.49077
528.528	9812.16695
528.735	9538.50077
528.941	9697.83263
529.148	9773.38027
529.355	9726.42068
529.562	9640.64749
529.768	9983.58066
529.975	9632.47719
530.182	10010.09978
530.388	9769.29715
530.595	10052.93324
530.802	9740.71358
531.008	9948.89814
531.215	9995.82056
531.422	10158.97021
531.628	10048.85413
531.835	10144.6982
532.042	10132.46452
532.248	10330.18196
532.455	10116.15215
532.661	10415.75241
532.868	10173.24154
533.074	10509.44609
533.281	10242.54982
533.487	10464.63947
533.694	10572.57228
533.9	10397.41783
534.107	10191.58939
534.313	10877.85546
534.52	10501.29989
534.726	10745.59918
534.933	10411.67815
535.139	10584.78886
535.345	10440.19687
535.552	10753.73947
535.758	10682.50546
535.965	10765.94954
536.171	10822.92424
536.377	11054.79966
536.584	10692.68265
536.79	10885.9927
536.996	10934.81231
537.203	10829.02813
537.409	10973.45654
537.615	10729.31804
537.821	11054.79966
538.028	11209.30376
538.234	10993.79398
538.44	11170.68349
538.646	11103.59711
538.853	11310.91815
539.059	10989.72659
539.265	11308.88611
539.471	11136.12529
539.677	11343.42938
539.883	11219.46635
540.09	11416.57033
540.296	11461.26133
540.502	11327.17409
540.708	11136.12529
540.914	11737.43217
541.12	11422.66484
541.326	11445.0106
541.532	11790.21061
541.738	11528.28912
541.944	11790.21061
542.15	11958.65731
542.356	11639.97943
542.562	11897.77956
542.768	11802.38942
542.974	12193.98443
543.18	11934.30709
543.386	12033.72988
543.592	11899.80894
543.798	11897.77956
544.004	12054.0179
544.21	12202.09734
544.415	11958.65731
544.621	12208.18194
544.827	12129.07689
545.033	12147.33291
545.239	12080.39118
545.445	12607.60126
545.651	12062.1329
545.856	12311.61028
546.062	12198.0409
546.268	12125.01992
546.474	12161.53161
546.679	12165.58832
546.885	11926.19009
547.091	12297.41533
547.297	11940.39476
547.502	12410.96543
547.708	12252.80037
547.914	12496.11415
548.119	12498.14136
548.325	12694.75093
548.531	12479.89624
548.736	12601.52063
548.942	12443.40441
549.147	12733.25543
549.353	12654.21758
549.559	12704.8839
549.764	12597.46685
549.97	12737.30841
550.175	12538.68421
550.381	12820.38956
550.586	12463.67791
550.792	12962.21415
550.997	12856.86125
551.203	12844.70422
551.408	13006.7823
551.614	13099.9625
551.819	12950.05877
552.025	13140.47245
552.23	13081.7324
552.435	13045.27103
552.641	13367.2951
552.846	13249.84018
553.052	13328.82004
553.257	13498.9095
553.462	13509.03302
553.668	13213.38572
553.873	13559.64925
554.078	13521.18112
554.283	13397.66912
554.489	13610.26326
554.694	13685.1681
554.899	13685.1681
555.105	13492.83535
555.31	13707.43624
555.515	13278.19267
555.72	13507.00832
555.925	13375.39493
556.131	13814.72293
556.336	13737.80127
556.541	13796.50503
556.746	13523.20579
556.951	13922.00144
557.156	13620.3858
557.361	13725.65534
557.567	13871.39934
557.772	13992.84161
557.977	13822.81969
558.182	13654.80182
558.387	13818.77132
558.592	13883.544
558.797	13802.57769
559.002	13952.36189
559.207	14057.6071
559.412	13970.57789
559.617	13881.51989
559.822	14098.0843
560.027	14124.39401
560.232	14197.24976
560.437	14025.22466
560.642	14429.96705
560.847	14096.06047
561.051	14223.55814
561.256	13711.48495
561.461	14130.46543
561.666	14187.13107
561.871	14227.60555
562.076	14429.96705
562.281	14506.86027
562.485	14355.09526
562.69	14215.46329
562.895	14300.45768
563.1	14480.55492
563.305	14320.69397
563.509	14500.78983
563.714	14519.00113
563.919	14561.49376
564.123	14458.29637
564.328	14858.92953
564.533	14529.11847
564.737	14203.32096
564.942	14472.46092
565.147	14786.0898
565.351	14502.81331
565.556	14533.1654
565.761	14664.68802
565.965	14929.7452
566.17	14713.24911
566.374	14603.98586
566.579	14907.48891
566.784	14620.1732
566.988	14840.71967
567.193	14897.3724
567.397	14753.71629
567.602	14867.02278
567.806	14954.02473
568.011	15002.58361
568.215	15164.44557
568.42	15488.17138
568.624	15039.00265
568.828	15322.26096
569.033	15028.88626
569.237	15026.86298
569.442	15200.86444
569.646	14984.37405
569.85	15045.07248
570.055	15215.02734
570.259	15043.0492
570.463	15558.98788
570.668	15449.72845
570.872	15372.84311
571.076	15474.00817
571.281	15441.63522
571.485	15382.95957
571.689	15488.17138
571.893	15300.00488
572.098	15382.95957
572.302	15368.79653
572.506	15652.06233
572.71	15342.4938
572.914	15405.21581
573.119	15297.9816
573.323	15150.28267
573.527	15459.84499
573.731	15720.85763
573.935	15817.98235
574.139	15927.25078
574.343	15595.40812
574.547	15917.13318
574.751	15981.88638
574.955	15749.18543
575.159	15813.93544
575.364	15866.54566
575.568	15832.14658
