Data from Scatter_Coeff_Baseline_USB4F045381__27__0027.txt Node

Date: Thu Feb 13 19:21:44 EST 2025
User: mmckonesweet
Spectrometer: USB4F04538
Trigger mode: 4
Integration Time (sec): 2.400000E-3
Scans to average: 1
Electric dark correction enabled: true
Nonlinearity correction enabled: true
Boxcar width: 0
XAxis mode: Wavelengths
Number of Pixels in Spectrum: 3648
>>>>>Begin Spectral Data<<<<<
345.52	33.89672
345.736	33.89672
345.952	33.89672
346.168	0.17561
346.384	-25.11117
346.6	38.11228
346.816	14.92785
347.032	-29.32529
347.248	4.39042
347.464	-35.64629
347.68	4.39042
347.896	-31.43231
348.112	-1.93175
348.328	23.35822
348.544	-37.75323
348.76	-12.46822
348.975	63.4076
349.191	6.49786
349.407	73.9483
349.623	-20.89695
349.839	40.22009
350.055	31.78897
350.27	105.57375
350.486	25.46587
350.702	12.82031
350.918	-54.60793
351.133	-16.68263
351.349	88.70622
351.565	-27.21824
351.781	78.16474
351.996	86.59788
352.212	38.11228
352.428	76.05651
352.644	65.5157
352.859	-27.21824
353.075	-12.46822
353.291	-4.03909
353.506	25.46587
353.722	-60.92802
353.938	19.14299
354.153	-12.46822
354.369	31.78897
354.584	27.57355
354.8	73.9483
355.016	0.17561
355.231	38.11228
355.447	0.17561
355.662	-16.68263
355.878	50.75953
356.093	54.97546
356.309	-33.53931
356.524	38.11228
356.74	27.57355
356.955	40.22009
357.171	84.48956
357.386	50.75953
357.602	21.25059
357.817	50.75953
358.033	-96.73754
358.248	33.89672
358.464	36.00449
358.679	17.0354
358.895	29.68125
359.11	21.25059
359.325	46.54368
359.541	-4.03909
359.756	-58.82135
359.972	-6.14641
360.187	6.49786
360.402	-6.14641
360.618	42.32793
360.833	-12.46822
361.048	-37.75323
361.264	59.19149
361.479	40.22009
361.694	31.78897
361.909	-44.07393
362.125	27.57355
362.34	12.82031
362.555	71.84011
362.77	33.89672
362.986	65.5157
363.201	67.62381
363.416	-73.56752
363.631	-46.18078
363.847	67.62381
364.062	10.7128
364.277	-6.14641
364.492	80.27299
364.707	-33.53931
364.922	-16.68263
365.138	-27.21824
365.353	0.17561
365.568	57.08346
365.783	54.97546
365.998	36.00449
366.213	-1.93175
366.428	25.46587
366.643	-12.46822
366.858	-14.57544
367.073	-44.07393
367.288	-12.46822
367.503	-111.48045
367.718	12.82031
367.933	46.54368
368.148	0.17561
368.363	46.54368
368.578	-25.11117
368.793	-39.86016
369.008	-16.68263
369.223	44.4358
369.438	-16.68263
369.653	33.89672
369.868	-60.92802
370.083	-1.93175
370.298	38.11228
370.513	63.4076
370.728	10.7128
370.943	2.283
371.157	50.75953
371.372	31.78897
371.587	23.35822
371.802	-29.32529
372.017	95.03138
372.232	-20.89695
372.446	50.75953
372.661	25.46587
372.876	12.82031
373.091	63.4076
373.306	8.60532
373.52	19.14299
373.735	38.11228
373.95	21.25059
374.165	63.4076
374.379	0.17561
374.594	-37.75323
374.809	12.82031
375.023	-79.88693
375.238	109.79086
375.453	-25.11117
375.667	17.0354
375.882	40.22009
376.097	33.89672
376.311	19.14299
376.526	-16.68263
376.741	12.82031
376.955	-25.11117
377.17	27.57355
377.384	31.78897
377.599	63.4076
377.813	63.4076
378.028	17.0354
378.242	21.25059
378.457	-10.36097
378.672	76.05651
378.886	-10.36097
379.101	71.84011
379.315	33.89672
379.53	40.22009
379.744	59.19149
379.958	63.4076
380.173	48.65159
380.387	-35.64629
380.602	6.49786
380.816	92.92297
381.031	0.17561
381.245	50.75953
381.459	-48.28761
381.674	-4.03909
381.888	-52.50118
382.103	44.4358
382.317	-41.96706
382.531	48.65159
382.746	-10.36097
382.96	-8.2537
383.174	95.03138
383.388	23.35822
383.603	67.62381
383.817	73.9483
384.031	-12.46822
384.246	105.57375
384.46	-41.96706
384.674	21.25059
384.888	-25.11117
385.103	-33.53931
385.317	29.68125
385.531	-23.00407
385.745	-67.24789
385.959	-1.93175
386.174	-4.03909
386.388	42.32793
386.602	-50.3944
386.816	17.0354
387.03	-69.35446
387.244	-1.93175
387.458	46.54368
387.672	73.9483
387.887	38.11228
388.101	21.25059
388.315	-67.24789
388.529	4.39042
388.743	-8.2537
388.957	14.92785
389.171	59.19149
389.385	-52.50118
389.599	52.86748
389.813	21.25059
390.027	33.89672
390.241	29.68125
390.455	29.68125
390.669	-18.7898
390.883	48.65159
391.097	10.7128
391.311	-27.21824
391.525	76.05651
391.738	-35.64629
391.952	23.35822
392.166	-16.68263
392.38	38.11228
392.594	14.92785
392.808	-20.89695
393.022	-4.03909
393.236	25.46587
393.449	12.82031
393.663	10.7128
393.877	65.5157
394.091	4.39042
394.305	-12.46822
394.518	50.75953
394.732	88.70622
394.946	46.54368
395.16	29.68125
395.373	-50.3944
395.587	-6.14641
395.801	-25.11117
396.015	-39.86016
396.228	25.46587
396.442	-71.461
396.656	17.0354
396.869	-41.96706
397.083	48.65159
397.297	57.08346
397.51	29.68125
397.724	0.17561
397.938	14.92785
398.151	-31.43231
398.365	71.84011
398.578	10.7128
398.792	8.60532
399.005	-8.2537
399.219	-31.43231
399.433	2.283
399.646	31.78897
399.86	-46.18078
400.073	2.283
400.287	-16.68263
400.5	-8.2537
400.714	99.24826
400.927	76.05651
401.141	63.4076
401.354	-8.2537
401.567	-41.96706
401.781	29.68125
401.994	-31.43231
402.208	21.25059
402.421	-12.46822
402.635	-4.03909
402.848	0.17561
403.061	29.68125
403.275	-54.60793
403.488	88.70622
403.701	-122.01031
403.915	14.92785
404.128	6.49786
404.341	97.13981
404.555	12.82031
404.768	57.08346
404.981	8.60532
405.195	8.60532
405.408	-46.18078
405.621	-18.7898
405.834	-31.43231
406.048	40.22009
406.261	21.25059
406.474	-14.57544
406.687	65.5157
406.9	-96.73754
407.114	21.25059
407.327	29.68125
407.54	10.7128
407.753	-1.93175
407.966	-67.24789
408.179	38.11228
408.392	-16.68263
408.605	54.97546
408.819	-18.7898
409.032	33.89672
409.245	48.65159
409.458	109.79086
409.671	73.9483
409.884	29.68125
410.097	-16.68263
410.31	14.92785
410.523	36.00449
410.736	0.17561
410.949	23.35822
411.162	57.08346
411.375	48.65159
411.588	78.16474
411.801	48.65159
412.014	-37.75323
412.227	-29.32529
412.44	14.92785
412.653	8.60532
412.865	38.11228
413.078	-8.2537
413.291	31.78897
413.504	17.0354
413.717	-20.89695
413.93	8.60532
414.143	10.7128
414.356	-20.89695
414.568	23.35822
414.781	4.39042
414.994	2.283
415.207	46.54368
415.42	29.68125
415.632	-8.2537
415.845	105.57375
416.058	8.60532
416.271	25.46587
416.483	-60.92802
416.696	54.97546
416.909	-33.53931
417.121	59.19149
417.334	78.16474
417.547	54.97546
417.759	80.27299
417.972	-16.68263
418.185	-12.46822
418.397	-33.53931
418.61	-67.24789
418.823	33.89672
419.035	14.92785
419.248	57.08346
419.46	-12.46822
419.673	-8.2537
419.885	-33.53931
420.098	38.11228
420.311	2.283
420.523	67.62381
420.736	8.60532
420.948	2.283
421.161	-25.11117
421.373	29.68125
421.586	-12.46822
421.798	-14.57544
422.01	4.39042
422.223	67.62381
422.435	0.17561
422.648	57.08346
422.86	111.89944
423.073	59.19149
423.285	46.54368
423.497	-8.2537
423.71	65.5157
423.922	82.38126
424.134	17.0354
424.347	33.89672
424.559	14.92785
424.771	4.39042
424.984	78.16474
425.196	-4.03909
425.408	63.4076
425.621	-1.93175
425.833	63.4076
426.045	25.46587
426.257	14.92785
426.47	8.60532
426.682	21.25059
426.894	17.0354
427.106	92.92297
427.318	-8.2537
427.531	57.08346
427.743	12.82031
427.955	-37.75323
428.167	80.27299
428.379	27.57355
428.591	42.32793
428.804	2.283
429.016	29.68125
429.228	-16.68263
429.44	-12.46822
429.652	-6.14641
429.864	97.13981
430.076	38.11228
430.288	48.65159
430.5	65.5157
430.712	2.283
430.924	0.17561
431.136	50.75953
431.348	25.46587
431.56	36.00449
431.772	-56.71465
431.984	-16.68263
432.196	-12.46822
432.408	14.92785
432.62	40.22009
432.832	-35.64629
433.044	38.11228
433.256	-10.36097
433.468	76.05651
433.679	25.46587
433.891	-4.03909
434.103	17.0354
434.315	14.92785
434.527	-6.14641
434.739	33.89672
434.95	38.11228
435.162	12.82031
435.374	-10.36097
435.586	31.78897
435.798	-20.89695
436.009	46.54368
436.221	52.86748
436.433	14.92785
436.645	80.27299
436.856	31.78897
437.068	54.97546
437.28	46.54368
437.491	2.283
437.703	14.92785
437.915	42.32793
438.126	0.17561
438.338	17.0354
438.55	19.14299
438.761	59.19149
438.973	95.03138
439.184	-54.60793
439.396	0.17561
439.608	50.75953
439.819	-27.21824
440.031	23.35822
440.242	29.68125
440.454	36.00449
440.665	14.92785
440.877	-8.2537
441.088	29.68125
441.3	54.97546
441.511	-4.03909
441.723	17.0354
441.934	-52.50118
442.146	14.92785
442.357	36.00449
442.569	29.68125
442.78	-25.11117
442.991	-4.03909
443.203	54.97546
443.414	44.4358
443.626	21.25059
443.837	156.18471
444.048	40.22009
444.26	14.92785
444.471	-10.36097
444.682	52.86748
444.894	61.29953
445.105	-6.14641
445.316	8.60532
445.528	48.65159
445.739	4.39042
445.95	-18.7898
446.161	-6.14641
446.373	38.11228
446.584	-14.57544
446.795	-16.68263
447.006	-16.68263
447.217	19.14299
447.429	46.54368
447.64	14.92785
447.851	-10.36097
448.062	17.0354
448.273	21.25059
448.484	-8.2537
448.695	-1.93175
448.907	0.17561
449.118	31.78897
449.329	31.78897
449.54	25.46587
449.751	-20.89695
449.962	8.60532
450.173	97.13981
450.384	-10.36097
450.595	6.49786
450.806	2.283
451.017	-71.461
451.228	76.05651
451.439	23.35822
451.65	23.35822
451.861	4.39042
452.072	48.65159
452.283	90.81458
452.494	-4.03909
452.705	59.19149
452.915	29.68125
453.126	80.27299
453.337	-46.18078
453.548	-46.18078
453.759	-23.00407
453.97	25.46587
454.181	12.82031
454.391	-8.2537
454.602	-10.36097
454.813	38.11228
455.024	-27.21824
455.235	12.82031
455.445	27.57355
455.656	25.46587
455.867	48.65159
456.078	12.82031
456.288	0.17561
456.499	25.46587
456.71	17.0354
456.921	76.05651
457.131	-63.03467
457.342	-27.21824
457.553	-8.2537
457.763	-8.2537
457.974	-1.93175
458.184	-29.32529
458.395	65.5157
458.606	-52.50118
458.816	33.89672
459.027	54.97546
459.237	-4.03909
459.448	-29.32529
459.659	-79.88693
459.869	8.60532
460.08	29.68125
460.29	33.89672
460.501	21.25059
460.711	52.86748
460.922	-8.2537
461.132	14.92785
461.343	40.22009
461.553	-18.7898
461.764	17.0354
461.974	-12.46822
462.184	6.49786
462.395	10.7128
462.605	67.62381
462.816	12.82031
463.026	46.54368
463.236	14.92785
463.447	17.0354
463.657	-25.11117
463.867	50.75953
464.078	-12.46822
464.288	-39.86016
464.498	-35.64629
464.709	25.46587
464.919	40.22009
465.129	-14.57544
465.339	67.62381
465.55	21.25059
465.76	-37.75323
465.97	-39.86016
466.18	-29.32529
466.391	31.78897
466.601	84.48956
466.811	4.39042
467.021	31.78897
467.231	-10.36097
467.441	14.92785
467.651	-33.53931
467.862	-23.00407
468.072	29.68125
468.282	27.57355
468.492	12.82031
468.702	31.78897
468.912	17.0354
469.122	-4.03909
469.332	14.92785
469.542	-25.11117
469.752	-20.89695
469.962	103.46523
470.172	59.19149
470.382	-20.89695
470.592	21.25059
470.802	63.4076
471.012	54.97546
471.222	46.54368
471.432	12.82031
471.642	38.11228
471.852	-33.53931
472.062	33.89672
472.272	4.39042
472.482	-20.89695
472.691	-10.36097
472.901	67.62381
473.111	8.60532
473.321	12.82031
473.531	-52.50118
473.741	-14.57544
473.95	-33.53931
474.16	4.39042
474.37	67.62381
474.58	23.35822
474.79	46.54368
474.999	-37.75323
475.209	25.46587
475.419	27.57355
475.628	-60.92802
475.838	57.08346
476.048	97.13981
476.258	29.68125
476.467	21.25059
476.677	63.4076
476.886	40.22009
477.096	101.35674
477.306	-73.56752
477.515	65.5157
477.725	-1.93175
477.935	-12.46822
478.144	63.4076
478.354	12.82031
478.563	-37.75323
478.773	12.82031
478.982	-10.36097
479.192	27.57355
479.401	8.60532
479.611	10.7128
479.82	19.14299
480.03	44.4358
480.239	38.11228
480.449	67.62381
480.658	12.82031
480.868	17.0354
481.077	61.29953
481.287	-1.93175
481.496	-71.461
481.705	97.13981
481.915	88.70622
482.124	54.97546
482.333	73.9483
482.543	59.19149
482.752	-4.03909
482.961	12.82031
483.171	12.82031
483.38	12.82031
483.589	14.92785
483.799	42.32793
484.008	-52.50118
484.217	6.49786
484.426	82.38126
484.636	42.32793
484.845	-20.89695
485.054	46.54368
485.263	76.05651
485.472	6.49786
485.682	67.62381
485.891	54.97546
486.1	-25.11117
486.309	57.08346
486.518	25.46587
486.727	21.25059
486.936	-1.93175
487.146	-18.7898
487.355	21.25059
487.564	4.39042
487.773	-8.2537
487.982	46.54368
488.191	-12.46822
488.4	4.39042
488.609	31.78897
488.818	29.68125
489.027	42.32793
489.236	-41.96706
489.445	12.82031
489.654	10.7128
489.863	8.60532
490.072	-1.93175
490.281	46.54368
490.49	12.82031
490.698	-50.3944
490.907	4.39042
491.116	69.73195
491.325	29.68125
491.534	-23.00407
491.743	-4.03909
491.952	54.97546
492.16	-6.14641
492.369	-20.89695
492.578	54.97546
492.787	-25.11117
492.996	-4.03909
493.204	12.82031
493.413	40.22009
493.622	6.49786
493.831	69.73195
494.039	33.89672
494.248	-4.03909
494.457	-44.07393
494.665	8.60532
494.874	97.13981
495.083	6.49786
495.291	2.283
495.5	8.60532
495.709	54.97546
495.917	67.62381
496.126	-4.03909
496.335	48.65159
496.543	46.54368
496.752	-18.7898
496.96	29.68125
497.169	69.73195
497.377	-20.89695
497.586	-58.82135
497.794	12.82031
498.003	-35.64629
498.211	92.92297
498.42	25.46587
498.628	-1.93175
498.837	-25.11117
499.045	61.29953
499.254	-29.32529
499.462	23.35822
499.671	17.0354
499.879	-10.36097
500.087	82.38126
500.296	14.92785
500.504	12.82031
500.713	40.22009
500.921	-1.93175
501.129	4.39042
501.338	17.0354
501.546	14.92785
501.754	-44.07393
501.962	19.14299
502.171	46.54368
502.379	-1.93175
502.587	23.35822
502.795	29.68125
503.004	80.27299
503.212	44.4358
503.42	46.54368
503.628	12.82031
503.837	14.92785
504.045	90.81458
504.253	-20.89695
504.461	63.4076
504.669	63.4076
504.877	-18.7898
505.085	6.49786
505.294	10.7128
505.502	21.25059
505.71	19.14299
505.918	116.11668
506.126	19.14299
506.334	46.54368
506.542	50.75953
506.75	4.39042
506.958	4.39042
507.166	8.60532
507.374	0.17561
507.582	44.4358
507.79	40.22009
507.998	69.73195
508.206	-27.21824
508.414	-14.57544
508.622	29.68125
508.83	63.4076
509.037	48.65159
509.245	-12.46822
509.453	23.35822
509.661	31.78897
509.869	71.84011
510.077	-31.43231
510.285	21.25059
510.492	59.19149
510.7	23.35822
510.908	63.4076
511.116	92.92297
511.324	-6.14641
511.531	46.54368
511.739	29.68125
511.947	29.68125
512.155	141.42191
512.362	19.14299
512.57	126.66015
512.778	-50.3944
512.985	14.92785
513.193	46.54368
513.401	33.89672
513.608	-6.14641
513.816	40.22009
514.024	29.68125
514.231	38.11228
514.439	14.92785
514.646	67.62381
514.854	36.00449
515.061	-35.64629
515.269	23.35822
515.477	92.92297
515.684	19.14299
515.892	59.19149
516.099	-16.68263
516.307	48.65159
516.514	-16.68263
516.722	92.92297
516.929	-23.00407
517.136	17.0354
517.344	21.25059
517.551	-12.46822
517.759	36.00449
517.966	88.70622
518.173	116.11668
518.381	-23.00407
518.588	33.89672
518.796	23.35822
519.003	-6.14641
519.21	21.25059
519.418	0.17561
519.625	31.78897
519.832	90.81458
520.039	59.19149
520.247	-33.53931
520.454	17.0354
520.661	40.22009
520.868	4.39042
521.076	46.54368
521.283	-18.7898
521.49	-29.32529
521.697	59.19149
521.904	109.79086
522.112	52.86748
522.319	-27.21824
522.526	36.00449
522.733	-25.11117
522.94	8.60532
523.147	38.11228
523.354	-8.2537
523.561	63.4076
523.768	14.92785
523.975	2.283
524.183	-31.43231
524.39	33.89672
524.597	63.4076
524.804	27.57355
525.011	6.49786
525.218	-31.43231
525.425	31.78897
525.632	0.17561
525.838	29.68125
526.045	-4.03909
526.252	101.35674
526.459	36.00449
526.666	29.68125
526.873	46.54368
527.08	-4.03909
527.287	10.7128
527.494	-18.7898
527.701	46.54368
527.907	61.29953
528.114	90.81458
528.321	12.82031
528.528	38.11228
528.735	80.27299
528.941	88.70622
529.148	46.54368
529.355	17.0354
529.562	-10.36097
529.768	0.17561
529.975	33.89672
530.182	6.49786
530.388	38.11228
530.595	-33.53931
530.802	50.75953
531.008	-8.2537
531.215	-10.36097
531.422	-67.24789
531.628	21.25059
531.835	40.22009
532.042	-25.11117
532.248	-4.03909
532.455	71.84011
532.661	-54.60793
532.868	29.68125
533.074	8.60532
533.281	23.35822
533.487	54.97546
533.694	33.89672
533.9	-60.92802
534.107	14.92785
534.313	19.14299
534.52	-29.32529
534.726	-29.32529
534.933	4.39042
535.139	71.84011
535.345	65.5157
535.552	92.92297
535.758	67.62381
535.965	73.9483
536.171	48.65159
536.377	33.89672
536.584	-16.68263
536.79	46.54368
536.996	-10.36097
537.203	-16.68263
537.409	6.49786
537.615	-39.86016
537.821	-29.32529
538.028	-46.18078
538.234	59.19149
538.44	-6.14641
538.646	48.65159
538.853	-65.14129
539.059	50.75953
539.265	105.57375
539.471	52.86748
539.677	67.62381
539.883	-44.07393
540.09	78.16474
540.296	6.49786
540.502	31.78897
540.708	-10.36097
540.914	50.75953
541.12	59.19149
541.326	38.11228
541.532	48.65159
541.738	-20.89695
541.944	-29.32529
542.15	67.62381
542.356	-35.64629
542.562	40.22009
542.768	2.283
542.974	42.32793
543.18	107.68229
543.386	38.11228
543.592	14.92785
543.798	46.54368
544.004	42.32793
544.21	52.86748
544.415	36.00449
544.621	-94.6313
544.827	8.60532
545.033	-4.03909
545.239	12.82031
545.445	-14.57544
545.651	33.89672
545.856	80.27299
546.062	29.68125
546.268	44.4358
546.474	44.4358
546.679	12.82031
546.885	-29.32529
547.091	8.60532
547.297	4.39042
547.502	29.68125
547.708	2.283
547.914	46.54368
548.119	-10.36097
548.325	-37.75323
548.531	19.14299
548.736	14.92785
548.942	14.92785
549.147	-8.2537
549.353	-4.03909
549.559	57.08346
549.764	10.7128
549.97	4.39042
550.175	-46.18078
550.381	29.68125
550.586	-33.53931
550.792	4.39042
550.997	54.97546
551.203	109.79086
551.408	76.05651
551.614	40.22009
551.819	17.0354
552.025	67.62381
552.23	8.60532
552.435	21.25059
552.641	63.4076
552.846	38.11228
553.052	-10.36097
553.257	21.25059
553.462	-4.03909
553.668	42.32793
553.873	19.14299
554.078	44.4358
554.283	29.68125
554.489	25.46587
554.694	61.29953
554.899	12.82031
555.105	44.4358
555.31	0.17561
555.515	12.82031
555.72	97.13981
555.925	4.39042
556.131	-44.07393
556.336	23.35822
556.541	109.79086
556.746	57.08346
556.951	50.75953
557.156	97.13981
557.361	130.87769
557.567	8.60532
557.772	40.22009
557.977	-29.32529
558.182	-12.46822
558.387	21.25059
558.592	65.5157
558.797	71.84011
559.002	71.84011
559.207	25.46587
559.412	23.35822
559.617	21.25059
559.822	107.68229
560.027	-16.68263
560.232	90.81458
560.437	95.03138
560.642	84.48956
560.847	31.78897
561.051	-4.03909
561.256	105.57375
561.461	31.78897
561.666	0.17561
561.871	86.59788
562.076	71.84011
562.281	48.65159
562.485	-29.32529
562.69	-18.7898
562.895	31.78897
563.1	-25.11117
563.305	99.24826
563.509	29.68125
563.714	-39.86016
563.919	21.25059
564.123	-20.89695
564.328	27.57355
564.533	50.75953
564.737	-41.96706
564.942	-8.2537
565.147	19.14299
565.351	-6.14641
565.556	-41.96706
565.761	67.62381
565.965	10.7128
566.17	57.08346
566.374	46.54368
566.579	31.78897
566.784	48.65159
566.988	4.39042
567.193	71.84011
567.397	42.32793
567.602	10.7128
567.806	21.25059
568.011	46.54368
568.215	-35.64629
568.42	95.03138
568.624	65.5157
568.828	29.68125
569.033	12.82031
569.237	6.49786
569.442	69.73195
569.646	-4.03909
569.85	92.92297
570.055	52.86748
570.259	36.00449
570.463	2.283
570.668	65.5157
570.872	48.65159
571.076	12.82031
571.281	12.82031
571.485	44.4358
571.689	-18.7898
571.893	118.22533
572.098	46.54368
572.302	40.22009
572.506	-12.46822
572.71	25.46587
572.914	40.22009
573.119	40.22009
573.323	82.38126
573.527	6.49786
573.731	4.39042
573.935	63.4076
574.139	38.11228
574.343	4.39042
574.547	-4.03909
574.751	36.00449
574.955	21.25059
575.159	33.89672
575.364	50.75953
575.568	-4.03909
575.772	31.78897
575.976	84.48956
576.18	33.89672
576.383	29.68125
576.587	29.68125
576.791	42.32793
576.995	33.89672
577.199	73.9483
577.403	0.17561
577.607	42.32793
577.811	92.92297
578.015	69.73195
578.219	107.68229
578.422	63.4076
578.626	21.25059
578.83	-46.18078
579.034	65.5157
579.238	46.54368
579.442	21.25059
579.645	31.78897
579.849	65.5157
580.053	103.46523
580.257	33.89672
580.46	4.39042
580.664	90.81458
580.868	-27.21824
581.071	71.84011
581.275	80.27299
581.479	54.97546
581.682	12.82031
581.886	65.5157
582.09	36.00449
582.293	27.57355
582.497	38.11228
582.7	33.89672
582.904	156.18471
583.107	54.97546
583.311	46.54368
583.515	52.86748
583.718	29.68125
583.922	122.44269
584.125	31.78897
584.329	80.27299
584.532	80.27299
584.735	17.0354
584.939	54.97546
585.142	63.4076
585.346	63.4076
585.549	40.22009
585.753	14.92785
585.956	67.62381
586.159	38.11228
586.363	-1.93175
586.566	128.76891
586.769	23.35822
586.973	42.32793
587.176	135.09531
587.379	109.79086
587.582	4.39042
587.786	12.82031
587.989	21.25059
588.192	82.38126
588.395	71.84011
588.599	63.4076
