Data from Scatter_Coeff_Baseline_USB4F045381__48__0048.txt Node

Date: Thu Feb 13 19:32:16 EST 2025
User: mmckonesweet
Spectrometer: USB4F04538
Trigger mode: 4
Integration Time (sec): 2.400000E-3
Scans to average: 1
Electric dark correction enabled: true
Nonlinearity correction enabled: true
Boxcar width: 0
XAxis mode: Wavelengths
Number of Pixels in Spectrum: 3648
>>>>>Begin Spectral Data<<<<<
345.52	20.72369
345.736	20.72369
345.952	20.72369
346.168	8.07845
346.384	18.61609
346.6	-12.99502
346.816	-4.56592
347.032	-34.06606
347.248	10.18593
347.464	10.18593
347.68	-10.88778
347.896	10.18593
348.112	24.93896
348.328	24.93896
348.544	-23.53085
348.76	46.01671
348.975	-40.38689
349.191	-4.56592
349.407	-61.45468
349.623	58.66448
349.839	-55.13461
350.055	-0.35123
350.27	-2.45859
350.486	3.86356
350.702	69.20492
350.918	-0.35123
351.133	-6.67324
351.349	-86.73269
351.565	-8.78052
351.781	111.37229
351.996	-55.13461
352.212	-0.35123
352.428	24.93896
352.644	58.66448
352.859	-17.20943
353.075	-15.10224
353.291	33.36978
353.506	-55.13461
353.722	-4.56592
353.938	24.93896
354.153	24.93896
354.369	-8.78052
354.584	41.80097
354.8	-34.06606
355.016	-6.67324
355.231	18.61609
355.447	-19.31659
355.662	-40.38689
355.878	-27.74501
356.093	10.18593
356.309	-34.06606
356.524	-12.99502
356.74	52.34049
356.955	-25.63794
357.171	67.09678
357.386	-19.31659
357.602	83.96248
357.817	-46.70749
358.033	-12.99502
358.248	-17.20943
358.464	-31.95906
358.679	67.09678
358.895	60.77252
359.11	-8.78052
359.325	-50.9211
359.541	8.07845
359.756	-4.56592
359.972	-15.10224
360.187	-0.35123
360.402	8.07845
360.618	24.93896
360.833	-63.56133
361.048	1.75615
361.264	-25.63794
361.479	27.04663
361.694	-48.81431
361.909	-21.42373
362.125	-42.49378
362.34	-12.99502
362.555	-63.56133
362.77	27.04663
362.986	-46.70749
363.201	37.58533
363.416	-12.99502
363.631	10.18593
363.847	-8.78052
364.062	-4.56592
364.277	-8.78052
364.492	3.86356
364.707	20.72369
364.922	-6.67324
365.138	37.58533
365.353	-19.31659
365.568	10.18593
365.783	1.75615
365.998	-31.95906
366.213	43.90883
366.428	50.23254
366.643	33.36978
366.858	8.07845
367.073	10.18593
367.288	-48.81431
367.503	1.75615
367.718	-8.78052
367.933	-27.74501
368.148	-15.10224
368.363	20.72369
368.578	18.61609
368.793	29.15432
369.008	-12.99502
369.223	22.83131
369.438	10.18593
369.653	-6.67324
369.868	-4.56592
370.083	39.69314
370.298	-10.88778
370.513	-6.67324
370.728	16.50851
370.943	52.34049
371.157	-59.34802
371.372	31.26204
371.587	-17.20943
371.802	-6.67324
372.017	12.29343
372.232	-8.78052
372.446	33.36978
372.661	-42.49378
372.876	-57.24133
373.091	24.93896
373.306	33.36978
373.52	41.80097
373.735	-4.56592
373.95	-34.06606
374.165	8.07845
374.379	-6.67324
374.594	-50.9211
374.809	1.75615
375.023	43.90883
375.238	1.75615
375.453	-31.95906
375.667	-17.20943
375.882	18.61609
376.097	-25.63794
376.311	48.12461
376.526	48.12461
376.741	27.04663
376.955	-48.81431
377.17	16.50851
377.384	-0.35123
377.599	-8.78052
377.813	12.29343
378.028	83.96248
378.242	58.66448
378.457	18.61609
378.672	3.86356
378.886	5.97099
379.101	10.18593
379.315	24.93896
379.53	8.07845
379.744	18.61609
379.958	37.58533
380.173	-21.42373
380.387	-34.06606
380.602	5.97099
380.816	33.36978
381.031	10.18593
381.245	43.90883
381.459	58.66448
381.674	8.07845
381.888	-8.78052
382.103	-0.35123
382.317	18.61609
382.531	-12.99502
382.746	-109.90091
382.96	88.17913
383.174	35.47754
383.388	41.80097
383.603	86.0708
383.817	-0.35123
384.031	119.80683
384.246	83.96248
384.46	-23.53085
384.674	43.90883
384.888	8.07845
385.103	24.93896
385.317	-15.10224
385.531	18.61609
385.745	8.07845
385.959	43.90883
386.174	3.86356
386.388	-59.34802
386.602	-38.27997
386.816	-44.60065
387.03	-23.53085
387.244	3.86356
387.458	54.44846
387.672	-15.10224
387.887	12.29343
388.101	-15.10224
388.315	1.75615
388.529	58.66448
388.743	27.04663
388.957	-17.20943
389.171	37.58533
389.385	3.86356
389.599	24.93896
389.813	-6.67324
390.027	-29.85205
390.241	16.50851
390.455	27.04663
390.669	1.75615
390.883	43.90883
391.097	64.98867
391.311	-55.13461
391.525	60.77252
391.738	24.93896
391.952	5.97099
392.166	10.18593
392.38	-10.88778
392.594	-46.70749
392.808	10.18593
393.022	77.63768
393.236	1.75615
393.449	-63.56133
393.663	27.04663
393.877	-12.99502
394.091	10.18593
394.305	39.69314
394.518	41.80097
394.732	31.26204
394.946	-17.20943
395.16	41.80097
395.373	31.26204
395.587	-36.17303
395.801	-12.99502
396.015	35.47754
396.228	67.09678
396.442	3.86356
396.656	-25.63794
396.869	24.93896
397.083	27.04663
397.297	62.88058
397.51	41.80097
397.724	8.07845
397.938	37.58533
398.151	33.36978
398.365	58.66448
398.578	12.29343
398.792	-23.53085
399.005	-15.10224
399.219	92.39587
399.433	8.07845
399.646	41.80097
399.86	-6.67324
400.073	46.01671
400.287	18.61609
400.5	81.85419
400.714	-0.35123
400.927	1.75615
401.141	16.50851
401.354	67.09678
401.567	-42.49378
401.781	8.07845
401.994	-23.53085
402.208	-25.63794
402.421	-15.10224
402.635	24.93896
402.848	-17.20943
403.061	50.23254
403.275	-55.13461
403.488	-29.85205
403.701	29.15432
403.915	56.55646
404.128	14.40096
404.341	10.18593
404.555	-10.88778
404.768	24.93896
404.981	62.88058
405.195	71.31307
405.408	-17.20943
405.621	24.93896
405.834	-50.9211
406.048	-0.35123
406.261	50.23254
406.474	69.20492
406.687	-8.78052
406.9	-25.63794
407.114	-93.05161
407.327	64.98867
407.54	71.31307
407.753	37.58533
407.966	-46.70749
408.179	24.93896
408.392	58.66448
408.605	8.07845
408.819	-25.63794
409.032	41.80097
409.245	75.52945
409.458	31.26204
409.671	-8.78052
409.884	-6.67324
410.097	-8.78052
410.31	18.61609
410.523	-6.67324
410.736	46.01671
410.949	27.04663
411.162	-21.42373
411.375	-17.20943
411.588	33.36978
411.801	-50.9211
412.014	50.23254
412.227	75.52945
412.44	-0.35123
412.653	12.29343
412.865	58.66448
413.078	-31.95906
413.291	79.74592
413.504	-57.24133
413.717	-12.99502
413.93	52.34049
414.143	-0.35123
414.356	12.29343
414.568	-38.27997
414.781	35.47754
414.994	-8.78052
415.207	52.34049
415.42	-63.56133
415.632	-0.35123
415.845	52.34049
416.058	31.26204
416.271	-12.99502
416.483	64.98867
416.696	35.47754
416.909	-71.98763
417.121	8.07845
417.334	71.31307
417.547	8.07845
417.759	-74.09415
417.972	81.85419
418.185	24.93896
418.397	12.29343
418.61	79.74592
418.823	50.23254
419.035	41.80097
419.248	16.50851
419.46	20.72369
419.673	20.72369
419.885	8.07845
420.098	41.80097
420.311	-34.06606
420.523	-15.10224
420.736	-0.35123
420.948	27.04663
421.161	-2.45859
421.373	64.98867
421.586	-31.95906
421.798	8.07845
422.01	10.18593
422.223	62.88058
422.435	94.50427
422.648	24.93896
422.86	81.85419
423.073	-19.31659
423.285	3.86356
423.497	41.80097
423.71	33.36978
423.922	3.86356
424.134	8.07845
424.347	24.93896
424.559	79.74592
424.771	83.96248
424.984	12.29343
425.196	35.47754
425.408	-10.88778
425.621	41.80097
425.833	83.96248
426.045	39.69314
426.257	149.33043
426.47	12.29343
426.682	75.52945
426.894	8.07845
427.106	54.44846
427.318	94.50427
427.531	50.23254
427.743	37.58533
427.955	79.74592
428.167	60.77252
428.379	22.83131
428.591	8.07845
428.804	113.4809
429.016	79.74592
429.228	-25.63794
429.44	90.28749
429.652	52.34049
429.864	64.98867
430.076	16.50851
430.288	31.26204
430.5	10.18593
430.712	16.50851
430.924	50.23254
431.136	71.31307
431.348	50.23254
431.56	71.31307
431.772	71.31307
431.984	52.34049
432.196	-8.78052
432.408	46.01671
432.62	56.55646
432.832	33.36978
433.044	43.90883
433.256	18.61609
433.468	24.93896
433.679	115.58952
433.891	41.80097
434.103	92.39587
434.315	86.0708
434.527	71.31307
434.739	27.04663
434.95	14.40096
435.162	33.36978
435.374	35.47754
435.586	-12.99502
435.798	-17.20943
436.009	31.26204
436.221	29.15432
436.433	27.04663
436.645	81.85419
436.856	96.6127
437.068	100.82962
437.28	86.0708
437.491	64.98867
437.703	58.66448
437.915	67.09678
438.126	41.80097
438.338	41.80097
438.55	22.83131
438.761	100.82962
438.973	33.36978
439.184	94.50427
439.396	48.12461
439.608	12.29343
439.819	8.07845
440.031	-29.85205
440.242	31.26204
440.454	67.09678
440.665	37.58533
440.877	113.4809
441.088	88.17913
441.3	69.20492
441.511	50.23254
441.723	94.50427
441.934	27.04663
442.146	62.88058
442.357	109.26371
442.569	67.09678
442.78	58.66448
442.991	102.93811
443.203	69.20492
443.414	124.02423
443.626	46.01671
443.837	90.28749
444.048	12.29343
444.26	24.93896
444.471	60.77252
444.682	77.63768
444.894	52.34049
445.105	138.7858
445.316	29.15432
445.528	86.0708
445.739	54.44846
445.95	92.39587
446.161	98.72115
446.373	71.31307
446.584	130.35049
446.795	62.88058
447.006	132.45929
447.217	60.77252
447.429	67.09678
447.64	109.26371
447.851	96.6127
448.062	134.5681
448.273	75.52945
448.484	113.4809
448.695	-23.53085
448.907	79.74592
449.118	130.35049
449.329	83.96248
449.54	107.15516
449.751	121.91552
449.962	113.4809
450.173	180.96744
450.384	102.93811
450.595	143.00359
450.806	58.66448
451.017	134.5681
451.228	115.58952
451.439	155.65745
451.65	153.54842
451.861	145.11251
452.072	73.42125
452.283	208.38993
452.494	134.5681
452.705	100.82962
452.915	130.35049
453.126	119.80683
453.337	145.11251
453.548	180.96744
453.759	151.43941
453.97	229.48645
454.181	145.11251
454.391	208.38993
454.602	240.03545
454.813	180.96744
455.024	180.96744
455.235	244.25518
455.445	145.11251
455.656	121.91552
455.867	208.38993
456.078	105.04662
456.288	124.02423
456.499	180.96744
456.71	225.26699
456.921	214.71868
457.131	252.69488
457.342	113.4809
457.553	138.7858
457.763	159.87558
457.974	202.06136
458.184	206.28038
458.395	278.01581
458.606	161.98467
458.816	261.13489
459.027	218.93794
459.237	269.5752
459.448	278.01581
459.659	206.28038
459.869	170.42125
460.08	278.01581
460.29	328.66565
460.501	271.68532
460.711	297.00827
460.922	202.06136
461.132	284.34646
461.343	286.45672
461.553	286.45672
461.764	301.22902
461.974	288.56699
462.184	307.56028
462.395	328.66565
462.605	398.32572
462.816	332.88694
463.026	311.78121
463.236	404.65936
463.447	353.99443
463.657	305.44984
463.867	396.21454
464.078	461.6686
464.288	425.77255
464.498	446.88733
464.709	385.65888
464.919	413.10444
465.129	480.67419
465.339	470.11538
465.55	476.45062
465.76	455.33367
465.97	525.02522
466.18	480.67419
466.391	571.49488
466.601	446.88733
466.811	613.74564
467.021	607.4077
467.231	704.60147
467.441	567.2701
467.651	734.18699
467.862	577.83217
468.072	738.41367
468.282	721.50723
468.492	691.92262
468.702	839.86582
468.912	691.92262
469.122	744.75376
469.332	856.7766
469.542	848.32114
469.752	861.00439
469.962	899.05592
470.172	1089.34831
470.382	977.28082
470.592	1055.51491
470.802	1059.74401
471.012	1072.43144
471.222	1102.03617
471.432	1080.88983
471.642	1118.9536
471.852	1133.75658
472.062	1195.08542
472.272	1376.97168
472.482	1275.45168
472.691	1431.96284
472.901	1347.3613
473.111	1396.00703
473.321	1489.06922
473.531	1565.21044
473.741	1575.78549
473.95	1599.05046
474.16	1514.44976
474.37	1666.72896
474.58	1706.91182
474.79	1804.19157
474.999	1715.37123
475.209	1725.94542
475.419	1884.54634
475.628	1893.00432
475.838	1787.27394
476.048	2007.17816
476.258	1897.23328
476.467	2298.86101
476.677	2197.4238
476.886	2191.0833
477.096	2246.03171
477.306	2453.08757
477.515	2362.24833
477.725	2459.42446
477.935	2239.69181
478.144	2700.14882
478.354	2393.93863
478.563	2670.59473
478.773	2529.12363
478.982	2984.99784
479.192	2784.57493
479.401	2843.66031
479.611	2915.39201
479.82	2968.12518
480.03	3033.50132
480.239	3147.34675
480.449	3130.48368
480.658	3395.95342
480.868	3282.21353
481.077	3393.84759
481.287	3425.43322
481.496	3349.62105
481.705	3448.59347
481.915	3699.00355
482.124	3595.92545
482.333	3623.27713
482.543	3656.93636
482.752	3802.03557
482.961	3726.34312
483.171	3896.61526
483.38	3829.36272
483.589	4119.24105
483.799	4106.64578
484.008	4077.25389
484.217	4186.40308
484.426	4329.05021
484.636	4370.98634
484.845	4509.31366
485.054	4333.24422
485.263	4523.97912
485.472	4601.47851
485.682	4722.90246
485.891	4534.45379
486.1	4685.22725
486.309	4750.10778
486.518	4722.90246
486.727	4599.38433
486.936	4978.06258
487.146	4873.52987
487.355	4990.60264
487.564	5072.0928
487.773	5172.33999
487.982	5232.88002
488.191	5374.75887
488.4	5220.3561
488.609	5397.69968
488.818	5433.14807
489.027	5512.36107
489.236	5431.06306
489.445	5554.03847
489.654	5572.79022
489.863	5676.93186
490.072	5756.04006
490.281	5595.70644
490.49	5768.52771
490.698	5901.67648
490.907	5926.63111
491.116	6018.10239
491.325	6049.27535
491.534	6026.4157
491.743	6086.67592
491.952	6140.6855
492.16	6016.024
492.369	6279.79091
492.578	6223.74617
492.787	6275.64004
492.996	6389.75509
493.204	6377.30961
493.413	6742.03025
493.622	6789.6399
493.831	6607.41564
494.039	6729.60835
494.248	6766.87157
494.457	6913.78223
494.665	7027.50774
494.874	7004.76809
495.083	6820.68316
495.291	7041.97701
495.5	6963.4163
495.709	7091.5776
495.917	7006.83545
496.126	7238.23752
496.335	7300.17297
496.543	7155.62599
496.752	7349.7071
496.96	7463.17543
497.169	7273.33671
497.377	7184.54406
497.586	7300.17297
497.794	7630.16444
498.003	7648.71012
498.211	7634.28585
498.42	7465.23788
498.628	7665.19372
498.837	7834.07299
499.045	8017.21076
499.254	7869.06697
499.462	7729.05492
499.671	7914.34442
499.879	8286.48133
500.087	8089.18692
500.296	8267.99273
500.504	7965.78398
500.713	8134.41644
500.921	8208.40751
501.129	8292.64384
501.338	7980.18476
501.546	8383.00716
501.754	8329.61521
501.962	8292.64384
502.171	8304.96833
502.379	8616.95727
502.587	8467.17562
502.795	8610.80383
503.004	8331.66899
503.212	8739.9908
503.42	8698.98702
503.628	8670.27998
503.837	8711.28893
504.045	8596.44517
504.253	8742.0408
504.461	8844.51738
504.669	8774.83825
504.877	8987.90909
505.085	8969.47789
505.294	8977.66971
505.502	8920.32101
505.71	9249.88977
505.918	9211.01971
506.126	9407.35424
506.334	9104.60716
506.542	9470.72161
506.75	9311.25123
506.958	9450.28222
507.166	9116.8879
507.374	9341.92635
507.582	9290.79908
507.79	9454.37023
507.998	9474.80929
508.206	9435.97369
508.414	9435.97369
508.622	9507.50846
508.83	9452.32623
509.037	9726.08036
509.245	9552.46314
509.453	9730.16413
509.661	9732.20599
509.869	9813.86799
510.077	9515.68261
510.285	9862.85366
510.492	9799.57888
510.7	9909.79025
510.908	9511.59556
511.116	9789.37193
511.324	9730.16413
511.531	9897.54667
511.739	10015.87926
511.947	10123.9686
512.155	10044.43503
512.362	10060.75136
512.57	10113.77319
512.778	10266.66812
512.985	10223.86532
513.193	10223.86532
513.401	10009.7598
513.608	10311.50277
513.816	10207.55791
514.024	10299.27578
514.231	10305.38934
514.439	10486.70411
514.646	10517.25268
514.854	10749.33017
515.061	10217.75014
515.269	10781.88982
515.477	10549.83467
515.684	10443.93127
515.892	10421.52418
516.099	10688.27257
516.307	10625.16826
516.514	10517.25268
516.722	10686.23713
516.929	10694.37882
517.136	10667.91762
517.344	10794.09891
517.551	10682.16621
517.759	11113.42362
517.966	10867.34459
518.173	10991.42134
518.381	11046.32724
518.588	11003.62335
518.796	10873.44771
519.003	11367.4725
519.21	11113.42362
519.418	11377.63114
519.625	11133.75354
519.832	11534.04355
520.039	11483.26655
520.247	11450.76614
520.454	11664.00615
520.661	11594.96821
520.868	11339.02697
521.076	11765.51374
521.283	11623.39687
521.49	11720.85312
521.697	11733.03371
521.904	11655.88458
522.112	11509.67133
522.319	11968.46471
522.526	11816.25936
522.733	11978.61009
522.94	12045.56465
523.147	11972.52288
523.354	11830.46718
523.561	12122.65333
523.768	11755.36397
523.975	12317.35575
524.183	11996.87128
524.39	12159.16519
524.597	11942.08576
524.804	12183.50508
525.011	12284.90997
525.218	12252.46237
525.425	12343.71664
525.632	12248.40629
525.838	12382.24199
526.045	12355.88281
526.252	12159.16519
526.459	12586.99446
526.666	12611.31717
526.873	12653.87979
527.08	12554.5628
527.287	12544.42757
527.494	12473.47653
527.701	12931.48769
527.907	12722.78512
528.114	13111.77809
528.321	12840.31413
528.528	13087.47154
528.735	13158.36376
528.941	12957.82472
529.148	12795.73639
529.355	13022.65068
529.562	12773.4465
529.768	12963.90238
529.975	12836.26172
530.182	12789.65739
530.388	13233.30083
530.595	13217.09874
530.802	13040.88205
531.008	13634.21981
531.215	13184.6937
531.422	13364.93264
531.628	13626.12187
531.835	13324.43244
532.042	13383.1572
532.248	13456.05224
532.455	13472.25046
532.661	13575.50854
532.868	13692.92825
533.074	13599.80321
533.281	13646.36661
533.487	13877.13433
533.694	13721.26928
533.9	14134.17573
534.107	13711.14756
534.313	14109.88999
534.52	13792.1192
534.726	13937.85642
534.933	13911.54381
535.139	13950.00055
535.345	13966.19258
535.552	14130.12813
535.758	14316.30946
535.965	14196.91248
536.171	14188.81752
536.377	14097.747
536.584	14010.71983
536.79	14330.47478
536.996	14506.52303
537.203	14417.48856
537.409	14107.86616
537.615	14609.71889
537.821	14310.23858
538.028	14520.68735
538.234	14741.23894
538.44	14674.46773
538.646	14457.95911
538.853	14595.55493
539.059	14536.87508
539.265	14868.70887
539.471	14759.44911
539.677	14690.65478
539.883	14623.88279
540.09	14682.56126
540.296	14818.1259
540.502	14874.77881
540.708	14803.96259
540.914	15234.92285
541.12	15016.40936
541.326	15259.20214
541.532	15354.2963
541.738	15257.17886
541.944	14977.96698
542.15	15060.92148
542.356	15107.45677
542.562	15750.87161
542.768	15313.83063
542.974	15473.67096
543.18	15192.43415
543.386	15726.59062
543.592	15627.44465
543.798	15645.65498
544.004	15491.8808
544.21	15799.43404
544.415	15483.78753
544.621	15552.58064
544.827	15473.67096
545.033	16100.94158
545.239	15767.05902
545.445	15977.502
545.651	15880.37284
545.856	15979.52556
546.062	16009.87908
546.268	15997.73763
546.474	15999.7612
546.679	15593.04755
546.885	15688.14601
547.091	15864.18493
547.297	15742.77793
547.502	16135.34378
547.708	16258.79087
547.914	16090.82338
548.119	16321.52877
548.325	16333.67179
548.531	16386.29235
548.736	16627.15014
548.942	16100.94158
549.147	16398.43574
549.353	16608.93294
549.559	16521.89768
549.764	16289.1477
549.97	16465.22568
550.175	16357.95804
550.381	16481.41751
550.586	16430.81847
550.792	16819.45431
550.997	16418.67489
551.203	16635.24673
551.408	16823.50306
551.614	16617.02945
551.819	16659.53673
552.025	16924.72492
552.23	16695.97234
552.435	16898.40662
552.641	17163.63481
552.846	17216.2812
553.052	17165.65963
553.257	17546.37969
553.462	17230.45556
553.668	17449.16426
553.873	16908.52899
554.078	17163.63481
554.283	17232.48048
554.489	17475.49272
554.694	17485.61919
554.899	17254.7548
555.105	17216.2812
555.31	17226.40573
555.515	17356.00623
555.72	17382.33284
555.925	16977.36284
556.131	17250.7049
556.336	17534.22736
556.541	17937.34318
556.746	17434.98762
556.951	17544.35429
557.156	17408.65997
557.361	17635.50032
557.567	17953.55167
557.772	17611.19407
557.977	17619.2961
558.182	17874.5374
558.387	17890.74503
558.592	17872.51147
558.797	17621.32162
559.002	17957.60383
559.207	17898.84892
559.412	18050.80736
559.617	17858.33
559.822	17750.96152
560.027	17657.78147
560.232	17902.90089
560.437	17890.74503
560.642	18060.93864
560.847	17945.4474
561.051	18296.00973
561.256	17783.37364
561.461	18265.60982
561.666	18235.21074
561.871	18156.17702
562.076	18125.78092
562.281	18366.94614
562.485	18156.17702
562.69	18634.5197
562.895	18243.31708
563.1	18565.59282
563.305	18042.70241
563.509	18662.90266
563.714	18186.57394
563.919	18364.91932
564.123	18508.83287
564.328	18764.27668
564.533	18516.94125
564.737	18342.62457
564.942	18596.00118
565.147	18737.91849
565.351	18318.30354
565.556	18855.52175
565.761	18715.61592
565.965	18902.16124
566.17	18752.11128
566.374	18559.51125
566.579	18468.29189
566.784	18642.62904
566.988	18877.82733
567.193	19356.50141
567.397	19269.2684
567.602	18928.52363
567.806	18810.91204
568.011	18819.02276
568.215	19161.75912
568.42	19177.98619
568.624	18614.24662
568.828	18946.77491
569.033	18958.94261
569.237	19409.25066
569.442	19439.6842
569.646	19060.34579
569.85	19153.64567
570.055	19188.12825
570.259	19064.40213
570.463	19269.2684
570.668	19415.33729
570.872	19171.90101
571.076	19283.46861
571.281	19486.35076
571.485	19510.69941
571.689	19701.45125
571.893	19802.93006
572.098	20097.278
