Data from Scatter_Coeff_Baseline_USB4F045381__5__0005.txt Node

Date: Thu Feb 13 19:13:53 EST 2025
User: mmckonesweet
Spectrometer: USB4F04538
Trigger mode: 4
Integration Time (sec): 2.400000E-3
Scans to average: 1
Electric dark correction enabled: true
Nonlinearity correction enabled: true
Boxcar width: 0
XAxis mode: Wavelengths
Number of Pixels in Spectrum: 3648
>>>>>Begin Spectral Data<<<<<
345.52	36.70708
345.736	36.70708
345.952	36.70708
346.168	13.52282
346.384	28.27611
346.6	30.38382
346.816	-64.43909
347.032	-9.65855
347.248	62.00222
347.464	7.20034
347.68	13.52282
347.896	-45.4785
348.112	87.30066
348.328	-56.01241
348.544	-26.51589
348.76	-5.44397
348.975	7.20034
349.191	53.57014
349.407	24.06077
349.623	45.13842
349.839	28.27611
350.055	30.38382
350.27	28.27611
350.486	-26.51589
350.702	-20.19457
350.918	53.57014
351.133	62.00222
351.349	36.70708
351.565	74.65103
351.781	7.20034
351.996	30.38382
352.212	-13.87303
352.428	57.78613
352.644	-70.75882
352.859	-87.61033
353.075	-7.55127
353.291	28.27611
353.506	19.84552
353.722	-3.33665
353.938	24.06077
354.153	21.95313
354.369	40.92271
354.584	34.5993
354.8	-1.2293
355.016	34.5993
355.231	66.2184
355.447	-30.72997
355.662	7.20034
355.878	-60.2258
356.093	36.70708
356.309	30.38382
356.524	-56.01241
356.74	0.87808
356.955	87.30066
357.171	-11.7658
357.386	45.13842
357.602	9.30781
357.817	17.73793
358.033	68.32652
358.248	-37.05092
358.464	-5.44397
358.679	28.27611
358.895	-28.62294
359.11	-24.40881
359.325	85.19233
359.541	-22.3017
359.756	66.2184
359.972	49.35423
360.187	15.63036
360.402	47.24632
360.618	32.49155
360.833	38.81488
361.048	36.70708
361.264	-9.65855
361.479	-11.7658
361.694	68.32652
361.909	-20.19457
362.125	15.63036
362.34	53.57014
362.555	9.30781
362.77	15.63036
362.986	24.06077
363.201	-15.98024
363.416	-5.44397
363.631	-7.55127
363.847	28.27611
364.062	15.63036
364.277	5.09289
364.492	-26.51589
364.707	-1.2293
364.922	-15.98024
365.138	36.70708
365.353	13.52282
365.568	133.68943
365.783	-5.44397
365.998	-15.98024
366.213	-20.19457
366.428	2.98547
366.643	40.92271
366.858	62.00222
367.073	-30.72997
367.288	43.03055
367.503	74.65103
367.718	49.35423
367.933	47.24632
368.148	74.65103
368.363	70.43467
368.578	-15.98024
368.793	26.16843
369.008	32.49155
369.223	49.35423
369.438	-34.94396
369.653	83.08402
369.868	32.49155
370.083	72.54284
370.298	-13.87303
370.513	70.43467
370.728	53.57014
370.943	-34.94396
371.157	47.24632
371.372	17.73793
371.587	-22.3017
371.802	59.89417
372.017	-9.65855
372.232	-47.58533
372.446	-9.65855
372.661	11.4153
372.876	17.73793
373.091	53.57014
373.306	97.84262
373.52	0.87808
373.735	-28.62294
373.95	28.27611
374.165	32.49155
374.379	53.57014
374.594	-45.4785
374.809	74.65103
375.023	64.1103
375.238	76.75925
375.453	11.4153
375.667	-26.51589
375.882	15.63036
376.097	36.70708
376.311	70.43467
376.526	32.49155
376.741	-81.29121
376.955	-47.58533
377.17	21.95313
377.384	-39.15785
377.599	32.49155
377.813	21.95313
378.028	19.84552
378.242	15.63036
378.457	30.38382
378.672	5.09289
378.886	-22.3017
379.101	34.5993
379.315	49.35423
379.53	26.16843
379.744	7.20034
379.958	11.4153
380.173	13.52282
380.387	-5.44397
380.602	2.98547
380.816	2.98547
381.031	26.16843
381.245	57.78613
381.459	49.35423
381.674	28.27611
381.888	5.09289
382.103	19.84552
382.317	2.98547
382.531	9.30781
382.746	104.16807
382.96	70.43467
383.174	28.27611
383.388	-32.83698
383.603	-7.55127
383.817	-5.44397
384.031	26.16843
384.246	36.70708
384.46	-47.58533
384.674	15.63036
384.888	-11.7658
385.103	62.00222
385.317	36.70708
385.531	-30.72997
385.745	64.1103
385.959	-22.3017
386.174	66.2184
386.388	51.46218
386.602	-13.87303
386.816	62.00222
387.03	72.54284
387.244	2.98547
387.458	85.19233
387.672	-1.2293
387.887	-11.7658
388.101	30.38382
388.315	9.30781
388.529	34.5993
388.743	28.27611
388.957	70.43467
389.171	70.43467
389.385	40.92271
389.599	-37.05092
389.813	13.52282
390.027	28.27611
390.241	11.4153
390.455	-34.94396
390.669	19.84552
390.883	47.24632
391.097	62.00222
391.311	-18.08741
391.525	7.20034
391.738	21.95313
391.952	95.73419
392.166	-5.44397
392.38	91.51738
392.594	38.81488
392.808	45.13842
393.022	64.1103
393.236	-7.55127
393.449	43.03055
393.663	-64.43909
393.877	-26.51589
394.091	-30.72997
394.305	17.73793
394.518	36.70708
394.732	-28.62294
394.946	36.70708
395.16	9.30781
395.373	-13.87303
395.587	-51.79892
395.801	93.62577
396.015	-3.33665
396.228	64.1103
396.442	59.89417
396.656	-22.3017
396.869	-3.33665
397.083	47.24632
397.297	36.70708
397.51	28.27611
397.724	7.20034
397.938	36.70708
398.151	45.13842
398.365	89.40901
398.578	72.54284
398.792	47.24632
399.005	62.00222
399.219	45.13842
399.433	70.43467
399.646	70.43467
399.86	28.27611
400.073	62.00222
400.287	-9.65855
400.5	83.08402
400.714	74.65103
400.927	15.63036
401.141	17.73793
401.354	40.92271
401.567	59.89417
401.781	72.54284
401.994	-3.33665
402.208	49.35423
402.421	11.4153
402.635	32.49155
402.848	24.06077
403.061	38.81488
403.275	36.70708
403.488	80.97574
403.701	-5.44397
403.915	55.67812
404.128	-15.98024
404.341	47.24632
404.555	114.71092
404.768	36.70708
404.981	38.81488
405.195	78.86748
405.408	28.27611
405.621	-66.54569
405.834	91.51738
406.048	34.5993
406.261	38.81488
406.474	70.43467
406.687	68.32652
406.9	80.97574
407.114	40.92271
407.327	11.4153
407.54	49.35423
407.753	85.19233
407.966	7.20034
408.179	47.24632
408.392	62.00222
408.605	64.1103
408.819	2.98547
409.032	36.70708
409.245	70.43467
409.458	55.67812
409.671	129.47183
409.884	30.38382
410.097	30.38382
410.31	53.57014
410.523	53.57014
410.736	97.84262
410.949	-5.44397
411.162	62.00222
411.375	-34.94396
411.588	87.30066
411.801	95.73419
412.014	-1.2293
412.227	30.38382
412.44	123.1456
412.653	36.70708
412.865	0.87808
413.078	38.81488
413.291	36.70708
413.504	36.70708
413.717	45.13842
413.93	108.38515
414.143	68.32652
414.356	99.95108
414.568	55.67812
414.781	38.81488
414.994	114.71092
415.207	40.92271
415.42	13.52282
415.632	45.13842
415.845	80.97574
416.058	49.35423
416.271	45.13842
416.483	36.70708
416.696	104.16807
416.909	36.70708
417.121	118.92822
417.334	62.00222
417.547	53.57014
417.759	24.06077
417.972	47.24632
418.185	74.65103
418.397	78.86748
418.61	116.81956
418.823	32.49155
419.035	87.30066
419.248	11.4153
419.46	152.66967
419.673	5.09289
419.885	80.97574
420.098	21.95313
420.311	70.43467
420.523	32.49155
420.736	131.58062
420.948	83.08402
421.161	40.92271
421.373	87.30066
421.586	64.1103
421.798	95.73419
422.01	36.70708
422.223	167.43326
422.435	123.1456
422.648	28.27611
422.86	57.78613
423.073	19.84552
423.285	118.92822
423.497	38.81488
423.71	55.67812
423.922	55.67812
424.134	70.43467
424.347	131.58062
424.559	21.95313
424.771	76.75925
424.984	28.27611
425.196	70.43467
425.408	91.51738
425.621	2.98547
425.833	93.62577
426.045	131.58062
426.257	97.84262
426.47	78.86748
426.682	133.68943
426.894	121.0369
427.106	70.43467
427.318	34.5993
427.531	51.46218
427.743	99.95108
427.955	146.34273
428.167	121.0369
428.379	85.19233
428.591	123.1456
428.804	80.97574
429.016	123.1456
429.228	121.0369
429.44	95.73419
429.652	116.81956
429.864	91.51738
430.076	114.71092
430.288	213.83967
430.5	85.19233
430.712	62.00222
430.924	108.38515
431.136	59.89417
431.348	123.1456
431.56	91.51738
431.772	106.2766
431.984	135.79826
432.196	99.95108
432.408	121.0369
432.62	104.16807
432.832	167.43326
433.044	116.81956
433.256	184.30718
433.468	85.19233
433.679	95.73419
433.891	150.56067
434.103	171.65161
434.315	137.90711
434.527	129.47183
434.739	87.30066
434.95	110.49372
435.162	150.56067
435.374	161.10588
435.586	154.77869
435.798	150.56067
436.009	175.87005
436.221	87.30066
436.433	161.10588
436.645	156.88773
436.856	205.40141
437.068	180.08857
437.28	125.25432
437.491	72.54284
437.703	213.83967
437.915	171.65161
438.126	190.63523
438.338	154.77869
438.55	201.1824
438.761	177.9793
438.973	165.32411
439.184	121.0369
439.396	213.83967
439.608	171.65161
439.819	173.76082
440.031	190.63523
440.242	209.6205
440.454	177.9793
440.665	121.0369
440.877	211.73008
441.088	192.74463
441.3	234.9367
441.511	182.19786
441.723	211.73008
441.934	137.90711
442.146	213.83967
442.357	294.01862
442.569	234.9367
442.78	247.59586
442.991	199.07293
443.203	167.43326
443.414	277.13656
443.626	165.32411
443.837	201.1824
444.048	258.14568
444.26	239.15634
444.471	203.2919
444.682	158.99679
444.894	291.9083
445.105	264.47581
445.316	308.79138
445.528	220.16857
445.739	275.02639
445.95	230.71714
446.161	283.46719
446.373	264.47581
446.584	272.91624
446.795	298.23931
447.006	277.13656
447.217	218.05892
447.429	270.8061
447.64	277.13656
447.851	268.69598
448.062	344.67174
448.273	332.0075
448.484	275.02639
448.695	211.73008
448.907	302.46008
449.118	315.12283
449.329	332.0075
449.54	310.90184
449.751	319.34389
449.962	325.67561
450.173	241.26619
450.384	357.33661
450.595	319.34389
450.806	412.22473
451.017	283.46719
451.228	361.55837
451.439	315.12283
451.65	408.00217
451.861	384.77926
452.072	374.22406
452.283	306.68093
452.494	376.33506
452.705	382.66819
452.915	399.55725
453.126	393.22373
453.337	363.66927
453.548	408.00217
453.759	435.44996
453.97	446.00751
454.181	452.34223
454.391	410.11344
454.602	522.03308
454.813	513.58486
455.024	553.71593
455.235	439.67293
455.445	399.55725
455.656	500.91295
455.867	505.13686
456.078	469.23549
456.288	524.14517
456.499	524.14517
456.71	606.52744
456.921	488.24157
457.131	598.07705
457.342	566.38994
457.553	513.58486
457.763	606.52744
457.974	762.89398
458.184	644.55668
458.395	712.17376
458.606	610.75271
458.816	697.38152
459.027	617.09072
459.237	712.17376
459.448	712.17376
459.659	705.83416
459.869	786.14272
460.08	678.36375
460.29	731.19313
460.501	815.73372
460.711	906.63131
460.922	836.87127
461.132	864.3514
461.343	855.89582
461.553	870.69318
461.764	858.0097
461.974	995.42896
462.184	889.71896
462.395	919.3159
462.605	1128.646
462.816	965.82836
463.026	953.1428
463.236	1075.77955
463.447	957.37129
463.657	999.65772
463.867	1312.63997
464.078	1065.20663
464.288	1151.90816
464.498	1128.646
464.709	1424.73641
464.919	1147.67864
465.129	1285.14525
465.339	1261.88078
465.55	1378.20545
465.76	1414.16117
465.97	1367.63028
466.18	1359.17017
466.391	1589.70925
466.601	1371.86035
466.811	1541.06395
467.021	1524.14369
467.231	1693.34141
467.441	1464.9224
467.651	1767.36015
467.862	1661.61791
468.072	2006.29726
468.282	1856.17626
468.492	1716.60489
468.702	1906.92457
468.912	2169.06709
469.122	2103.54168
469.332	2099.31398
469.542	1925.95439
469.752	2198.65666
469.962	2088.7446
470.172	2336.01409
470.382	2306.43273
470.592	2238.81126
470.802	2414.18399
471.012	2316.99772
471.222	2562.0328
471.432	2606.37643
471.642	2606.37643
471.852	2650.71468
472.062	2640.15845
472.272	2745.70638
472.482	2842.78114
472.691	3140.14494
472.901	2929.2793
473.111	2958.80966
473.321	3199.15906
473.531	3291.86933
473.741	3165.43827
473.95	3367.6987
474.16	3218.12516
474.37	3475.08474
474.58	3390.8643
474.79	3677.09451
474.999	3475.08474
475.209	3504.5551
475.419	3491.92538
475.628	3778.03399
475.838	3817.97681
476.048	4030.18342
476.258	3862.11585
476.467	4109.9696
476.677	4349.14569
476.886	4376.40246
477.096	4483.29726
477.306	4395.27038
477.515	4269.45112
477.725	4342.85514
477.935	4472.8199
478.144	4627.82833
478.354	4424.61696
478.563	5018.98888
478.773	4906.11538
478.982	4941.65687
479.192	5140.14837
479.401	5215.31151
479.611	5348.86015
479.82	5094.20051
480.03	5215.31151
480.239	5446.8738
480.449	5471.89025
480.658	5588.58883
480.868	5857.13095
481.077	5686.47523
481.287	5615.669
481.496	5794.71434
481.705	5871.69176
481.915	6073.34418
482.124	6187.58479
482.333	6000.60857
482.543	6185.50832
482.752	6268.54874
482.961	6305.9047
483.171	6301.75441
483.38	6247.79215
483.589	6484.27883
483.799	6652.12537
484.008	6716.3229
484.217	6728.74568
484.426	6817.75151
484.636	6840.51367
484.845	7194.01034
485.054	6970.82582
485.263	7163.02806
485.472	7212.59732
485.682	7165.0937
485.891	7309.63359
486.1	7402.49525
486.309	7616.941
486.518	7719.95765
486.727	7583.96446
486.936	7740.55465
487.146	7767.32761
487.355	7960.81205
487.564	7798.21508
487.773	8086.27408
487.982	7777.62396
488.191	8135.61558
488.4	8226.0451
488.609	8121.2255
488.818	8226.0451
489.027	8417.0548
489.236	8648.91823
489.445	8587.38507
489.654	8558.66382
489.863	8687.88056
490.072	8609.94918
490.281	8829.31955
490.49	8706.33407
490.698	9025.96162
490.907	8892.83649
491.116	9249.03742
491.325	9017.77145
491.534	9093.51986
491.743	9204.02927
491.952	9236.76328
492.16	9291.99216
492.369	9500.52617
492.578	9535.26548
492.787	9545.48205
492.996	9606.77317
493.204	9792.60417
493.413	9810.97621
493.622	9947.70797
493.831	9892.61508
494.039	10170.01356
494.248	9837.51145
494.457	9992.59063
494.665	10186.32299
494.874	10265.81892
495.083	10153.70324
495.291	10451.23021
495.5	10424.74954
495.709	10516.40415
495.917	10328.99332
496.126	10536.76832
496.335	10612.10487
496.543	10880.73742
496.752	10658.92713
496.96	10722.02519
497.169	10711.84887
497.377	10701.67225
497.586	10595.81733
497.794	11045.47999
498.003	10982.43905
498.211	11035.31281
498.42	11120.70863
498.628	11179.66135
498.837	11311.76483
499.045	11360.53062
499.254	11382.87968
499.462	11472.26408
499.671	11397.10119
499.879	11539.29017
500.087	11451.95109
500.296	11880.3604
500.504	11669.25125
500.713	11673.31193
500.921	11504.76287
501.129	11657.06899
501.338	11644.8864
501.546	12030.51753
501.754	11602.24476
501.962	11803.23516
502.171	11935.1526
502.379	12194.82953
502.587	12077.17912
502.795	12168.4618
503.004	11762.63799
503.212	12452.35862
503.42	12290.14873
503.628	12434.11217
503.837	12125.86512
504.045	12490.87716
504.253	12423.97502
504.461	12306.3717
504.669	12541.5559
504.877	12823.26008
505.085	12610.47265
505.294	12768.54939
505.502	12738.15278
505.71	13025.85808
505.918	12709.78145
506.126	12784.76039
506.334	12693.56874
506.542	13114.98516
506.75	12965.08414
506.958	13131.18909
507.166	13183.84981
507.374	12756.3909
507.582	13129.16361
507.79	13074.47401
507.998	13108.90861
508.206	13544.2959
508.414	13228.40648
508.622	13562.51743
508.83	13238.5327
509.037	13686.01159
509.245	13384.33841
509.453	13445.08456
509.661	13386.36334
509.869	13744.71765
510.077	13566.56663
510.285	13659.69421
510.492	13764.96051
510.7	14133.33248
510.908	13829.73565
511.116	13963.32525
511.324	13811.51794
511.531	13930.94097
511.739	13825.68729
511.947	14173.80804
512.155	13951.18122
512.362	13955.22924
512.57	14050.35483
512.778	14005.82864
512.985	14107.0229
513.193	14299.27723
513.401	14019.99619
513.608	14254.75674
513.816	14337.72604
514.024	14301.30086
514.231	14270.94611
514.439	14406.52769
514.646	14625.06311
514.854	14562.33686
515.061	14327.60799
515.269	14795.0262
515.477	14655.41414
515.684	14653.39075
515.892	14422.71604
516.099	14920.47176
516.307	14756.5827
516.514	14918.44846
516.722	14770.74613
516.929	15025.68273
517.136	14661.48432
517.344	14920.47176
517.551	14786.93285
517.759	15284.66169
517.966	15120.77664
518.173	15124.82318
518.381	14841.56272
518.588	15252.28928
518.796	15027.70601
519.003	15217.89364
519.21	15503.17767
519.418	15424.26854
519.625	15462.71135
519.832	15786.45028
520.039	15440.45496
520.247	15541.62091
520.454	15319.05744
520.661	15786.45028
520.868	15622.55485
521.076	15733.84118
521.283	15644.8119
521.49	15640.76516
521.697	15794.54405
521.904	15934.16449
522.112	15990.82378
522.319	16045.46055
522.526	16007.01234
522.733	16207.35381
522.94	16187.11659
523.147	16053.55498
523.354	16019.15383
523.561	16419.85551
523.768	16367.23411
523.975	16446.16671
524.183	16160.80845
524.39	16096.05111
524.597	16328.78084
524.804	16470.45428
525.011	16288.30445
525.218	16685.00784
525.425	16626.30675
525.632	16733.58954
525.838	16648.57245
526.045	16802.41596
526.252	16421.87944
526.459	16978.54384
526.666	16656.66914
526.873	17314.66099
527.08	17328.83636
527.287	17288.3357
527.494	16709.29852
527.701	17424.0177
527.907	17053.45482
528.114	17306.56085
528.321	17351.11224
528.528	17529.33271
528.735	17478.69943
528.941	17195.18866
529.148	17033.20824
529.355	17397.69027
529.562	17122.29525
529.768	17658.96305
529.975	17444.26993
530.182	17652.88633
530.388	17361.23776
530.595	17677.1934
530.802	17575.91708
531.008	17780.50378
531.215	17513.12984
531.422	17774.42645
531.628	18013.49128
531.835	18062.12062
532.042	17942.57715
532.248	18181.67661
532.455	18104.673
532.661	18343.80685
532.868	18179.65013
533.074	18580.96582
533.281	18362.048
533.487	18208.02116
533.694	18159.38555
533.9	18797.90124
534.107	18161.41199
534.313	18690.44163
534.52	18128.98936
534.726	18497.85287
534.933	18370.15528
535.139	18724.9086
535.345	18341.78008
535.552	18812.09485
535.758	18435.01566
535.965	18662.05792
536.171	18672.19487
536.377	18903.34416
536.584	18702.60631
536.79	18881.03802
536.996	19311.02434
537.203	19345.51234
537.409	18962.15356
537.615	19041.24742
537.821	18927.67867
538.028	19388.11681
538.234	19207.56748
538.44	19489.5634
538.646	19607.25446
538.853	19840.64903
539.059	19394.20332
539.265	19749.31412
539.471	19690.45834
539.677	19217.70984
539.883	19418.5497
540.09	19745.25499
540.296	19660.01708
540.502	19881.24505
540.708	19522.0285
540.914	20019.2841
541.12	19976.65232
541.326	20096.43204
541.532	19686.39945
541.738	20130.94756
541.944	19834.55977
542.15	20382.74457
542.356	20137.03866
542.562	20313.69703
542.768	20122.82615
542.974	20344.15858
543.18	20234.50141
543.386	20514.76072
543.592	20819.48068
543.798	20585.85366
544.004	20398.99176
544.21	20707.73916
544.415	20437.5799
544.621	20864.1808
544.827	20537.10366
545.033	20890.59544
545.239	20543.19728
545.445	21166.97488
545.651	20963.74732
545.856	21016.58255
546.062	20977.97192
546.268	21077.54972
546.474	20849.95781
546.679	20482.26279
546.885	20866.21267
547.091	20896.69123
547.297	20675.23489
547.502	20961.71525
547.708	21339.75026
547.914	20851.98966
548.119	21286.89822
548.325	21045.03344
548.531	20835.73504
548.736	21134.45572
548.942	21018.61473
549.147	21299.0946
549.353	21402.7697
549.559	21256.4079
549.764	20805.25833
549.97	21227.95109
550.175	21282.83279
550.381	21679.28723
550.586	21280.80008
550.792	21604.05097
550.997	21506.45519
551.203	21728.092
551.408	21532.88648
551.614	21742.32715
551.819	21803.33708
552.025	22023.0015
552.23	22185.74439
552.435	22197.95107
552.641	22126.74732
552.846	21811.472
553.052	21884.68906
553.257	22130.81598
553.462	22159.29704
553.668	22112.50712
553.873	22336.30277
554.078	22472.63641
554.283	22358.68478
554.489	22535.72163
554.694	22267.12479
554.899	22155.22827
555.105	22006.72853
555.31	22663.93761
555.515	22611.02137
555.72	22604.91581
555.925	22143.02206
556.131	22659.86704
556.336	22525.54636
556.541	22633.40872
556.746	22643.58493
556.951	22871.55479
557.156	22533.68657
557.361	22906.16113
557.567	22733.13933
557.772	22938.7327
557.977	22706.67937
558.182	22863.41227
558.387	23022.20128
558.592	22885.80434
558.797	23176.9383
559.002	23056.81185
559.207	22895.9827
559.412	23150.46878
559.617	22749.42268
559.822	23020.16539
560.027	22893.94702
560.232	23482.39506
560.437	23301.14874
560.642	23091.42338
560.847	23500.72472
561.051	23480.35845
561.256	23181.01058
561.461	23413.15195
561.666	23205.44455
561.871	23052.73997
562.076	23468.13883
562.281	23832.73772
562.485	23447.77306
562.69	23769.58804
562.895	23641.26035
563.1	23624.96562
563.305	23661.62904
563.509	23785.88446
563.714	23468.13883
563.919	23899.96465
564.123	24087.40159
564.328	23478.32183
564.533	23981.45603
564.737	23323.54861
564.942	23655.5184
565.147	23924.41159
565.351	23504.79801
565.556	23531.2747
565.761	23696.25648
565.965	23973.30669
566.17	23963.12007
566.374	23834.77486
566.579	23804.21816
566.784	24038.5027
566.988	24293.20178
567.193	24523.48562
567.397	24303.39062
567.602	24285.05075
567.806	24036.46528
568.011	24270.78656
568.215	24215.76875
568.42	24651.88814
568.624	24313.57953
568.828	24735.45697
569.033	24602.97173
569.237	24855.72169
569.442	24605.00988
569.646	24366.56292
569.85	24285.05075
570.055	24912.79937
570.259	24965.8017
570.463	24922.992
570.668	24321.7307
570.872	24378.79011
