Data from Scatter_Coeff_Baseline_USB4F045381__53__0053.txt Node

Date: Thu Feb 13 19:33:18 EST 2025
User: mmckonesweet
Spectrometer: USB4F04538
Trigger mode: 4
Integration Time (sec): 2.400000E-3
Scans to average: 1
Electric dark correction enabled: true
Nonlinearity correction enabled: true
Boxcar width: 0
XAxis mode: Wavelengths
Number of Pixels in Spectrum: 3648
>>>>>Begin Spectral Data<<<<<
345.52	7.55158
345.736	7.55158
345.952	7.55158
346.168	1.22931
346.384	13.87408
346.6	75.0024
346.816	-17.73622
347.032	-26.16471
347.248	13.87408
347.464	56.02946
347.68	20.19678
347.896	-43.0205
348.112	-19.84338
348.328	30.7351
348.544	-45.12736
348.76	-32.48582
348.975	-11.4146
349.191	-66.19459
349.407	13.87408
349.623	-5.09275
349.839	32.84284
350.055	77.11062
350.27	37.05838
350.486	30.7351
350.702	53.92147
350.918	-11.4146
351.133	-45.12736
351.349	3.33671
351.565	68.67788
351.781	51.8135
351.996	-19.84338
352.212	58.13747
352.428	26.51971
352.644	-28.27177
352.859	22.3044
353.075	30.7351
353.291	-0.87807
353.506	-51.44779
353.722	-2.98542
353.938	-11.4146
354.153	24.41204
354.369	-89.3656
354.584	66.56975
354.8	-49.34101
355.016	-43.0205
355.231	26.51971
355.447	72.8942
355.662	24.41204
355.878	81.32712
356.093	53.92147
356.309	-43.0205
356.524	22.3044
356.74	-55.66129
356.955	58.13747
357.171	-19.84338
357.386	-36.69976
357.602	-28.27177
357.817	5.44413
358.033	58.13747
358.248	-57.768
358.464	-9.30734
358.679	20.19678
358.895	-36.69976
359.11	58.13747
359.325	108.73657
359.541	66.56975
359.756	-9.30734
359.972	-45.12736
360.187	24.41204
360.402	7.55158
360.618	-11.4146
360.833	64.46165
361.048	9.65906
361.264	7.55158
361.479	13.87408
361.694	-57.768
361.909	-21.95051
362.125	-93.57817
362.34	34.9506
362.555	45.48974
362.77	32.84284
362.986	43.38186
363.201	18.08919
363.416	-47.2342
363.631	-51.44779
363.847	-9.30734
364.062	-32.48582
364.277	3.33671
364.492	-13.52183
364.707	-68.30117
364.922	72.8942
365.138	41.27401
365.353	-49.34101
365.568	-40.91361
365.783	7.55158
365.998	-2.98542
366.213	77.11062
366.428	-11.4146
366.643	13.87408
366.858	-0.87807
367.073	-7.20006
367.288	-68.30117
367.503	5.44413
367.718	39.16618
367.933	7.55158
368.148	-24.05762
368.363	-7.20006
368.578	5.44413
368.793	37.05838
369.008	-2.98542
369.223	18.08919
369.438	30.7351
369.653	3.33671
369.868	1.22931
370.083	-13.52183
370.298	89.7604
370.513	1.22931
370.728	37.05838
370.943	30.7351
371.157	39.16618
371.372	37.05838
371.587	18.08919
371.802	66.56975
372.017	-28.27177
372.232	51.8135
372.446	32.84284
372.661	-19.84338
372.876	-32.48582
373.091	89.7604
373.306	-19.84338
373.52	-24.05762
373.735	-5.09275
373.95	62.35357
374.165	-36.69976
374.379	62.35357
374.594	58.13747
374.809	-47.2342
375.023	-45.12736
375.238	102.41098
375.453	39.16618
375.667	22.3044
375.882	-0.87807
376.097	58.13747
376.311	-28.27177
376.526	58.13747
376.741	22.3044
376.955	93.97717
377.17	-19.84338
377.384	43.38186
377.599	9.65906
377.813	39.16618
378.028	5.44413
378.242	13.87408
378.457	96.08559
378.672	-59.87469
378.886	5.44413
379.101	96.08559
379.315	-70.40773
379.53	-15.62904
379.744	-19.84338
379.958	1.22931
380.173	-40.91361
380.387	81.32712
380.602	-11.4146
380.816	30.7351
381.031	-24.05762
381.245	62.35357
381.459	22.3044
381.674	-9.30734
381.888	49.70556
382.103	-32.48582
382.317	-0.87807
382.531	-21.95051
382.746	-53.55456
382.96	5.44413
383.174	-7.20006
383.388	-19.84338
383.603	3.33671
383.817	7.55158
384.031	-36.69976
384.246	24.41204
384.46	11.76656
384.674	-9.30734
384.888	-2.98542
385.103	-43.0205
385.317	-43.0205
385.531	-17.73622
385.745	-17.73622
385.959	32.84284
386.174	24.41204
386.388	7.55158
386.602	-7.20006
386.816	49.70556
387.03	24.41204
387.244	13.87408
387.458	-83.04654
387.672	22.3044
387.887	81.32712
388.101	91.86877
388.315	39.16618
388.529	-15.62904
388.743	68.67788
388.957	-0.87807
389.171	-2.98542
389.385	34.9506
389.599	-24.05762
389.813	20.19678
390.027	-2.98542
390.241	49.70556
390.455	11.76656
390.669	-2.98542
390.883	-68.30117
391.097	5.44413
391.311	13.87408
391.525	-28.27177
391.738	68.67788
391.952	5.44413
392.166	-9.30734
392.38	-15.62904
392.594	-17.73622
392.808	134.0409
393.022	-45.12736
393.236	39.16618
393.449	34.9506
393.663	1.22931
393.877	56.02946
394.091	87.65205
394.305	43.38186
394.518	30.7351
394.732	1.22931
394.946	1.22931
395.16	32.84284
395.373	13.87408
395.587	60.24551
395.801	60.24551
396.015	5.44413
396.228	32.84284
396.442	7.55158
396.656	1.22931
396.869	18.08919
397.083	-53.55456
397.297	22.3044
397.51	32.84284
397.724	30.7351
397.938	5.44413
398.151	13.87408
398.365	7.55158
398.578	-2.98542
398.792	77.11062
399.005	66.56975
399.219	5.44413
399.433	41.27401
399.646	22.3044
399.86	7.55158
400.073	22.3044
400.287	66.56975
400.5	70.78603
400.714	37.05838
400.927	-19.84338
401.141	-32.48582
401.354	-40.91361
401.567	-2.98542
401.781	7.55158
401.994	39.16618
402.208	1.22931
402.421	3.33671
402.635	43.38186
402.848	98.19403
403.061	66.56975
403.275	-45.12736
403.488	-9.30734
403.701	60.24551
403.915	13.87408
404.128	-2.98542
404.341	-28.27177
404.555	15.98162
404.768	-30.3788
404.981	30.7351
405.195	-49.34101
405.408	-28.27177
405.621	43.38186
405.834	22.3044
406.048	-2.98542
406.261	43.38186
406.474	-5.09275
406.687	85.54372
406.9	18.08919
407.114	-2.98542
407.327	64.46165
407.54	-24.05762
407.753	43.38186
407.966	-17.73622
408.179	20.19678
408.392	30.7351
408.605	5.44413
408.819	18.08919
409.032	13.87408
409.245	-51.44779
409.458	77.11062
409.671	-53.55456
409.884	30.7351
410.097	-34.5928
410.31	30.7351
410.523	-11.4146
410.736	30.7351
410.949	-11.4146
411.162	9.65906
411.375	1.22931
411.588	49.70556
411.801	-7.20006
412.014	-24.05762
412.227	34.9506
412.44	-7.20006
412.653	-2.98542
412.865	-7.20006
413.078	37.05838
413.291	11.76656
413.504	-13.52183
413.717	45.48974
413.93	22.3044
414.143	22.3044
414.356	-32.48582
414.568	34.9506
414.781	5.44413
414.994	9.65906
415.207	-5.09275
415.42	-28.27177
415.632	-2.98542
415.845	98.19403
416.058	18.08919
416.271	34.9506
416.483	62.35357
416.696	28.62739
416.909	28.62739
417.121	5.44413
417.334	1.22931
417.547	66.56975
417.759	98.19403
417.972	102.41098
418.185	24.41204
418.397	5.44413
418.61	7.55158
418.823	30.7351
419.035	91.86877
419.248	-19.84338
419.46	-19.84338
419.673	-24.05762
419.885	-24.05762
420.098	13.87408
420.311	-28.27177
420.523	56.02946
420.736	83.43541
420.948	5.44413
421.161	-2.98542
421.373	-19.84338
421.586	-45.12736
421.798	-53.55456
422.01	-11.4146
422.223	18.08919
422.435	7.55158
422.648	18.08919
422.86	58.13747
423.073	-11.4146
423.285	51.8135
423.497	39.16618
423.71	32.84284
423.922	75.0024
424.134	72.8942
424.347	66.56975
424.559	-11.4146
424.771	-53.55456
424.984	26.51971
425.196	-15.62904
425.408	60.24551
425.621	20.19678
425.833	34.9506
426.045	24.41204
426.257	91.86877
426.47	22.3044
426.682	28.62739
426.894	32.84284
427.106	-21.95051
427.318	34.9506
427.531	30.7351
427.743	39.16618
427.955	-2.98542
428.167	64.46165
428.379	45.48974
428.591	24.41204
428.804	47.59764
429.016	-7.20006
429.228	66.56975
429.44	51.8135
429.652	68.67788
429.864	5.44413
430.076	-40.91361
430.288	30.7351
430.5	79.21886
430.712	7.55158
430.924	75.0024
431.136	39.16618
431.348	30.7351
431.56	56.02946
431.772	-38.8067
431.984	24.41204
432.196	22.3044
432.408	22.3044
432.62	47.59764
432.832	1.22931
433.044	34.9506
433.256	39.16618
433.468	13.87408
433.679	39.16618
433.891	30.7351
434.103	77.11062
434.315	68.67788
434.527	136.14973
434.739	30.7351
434.95	41.27401
435.162	41.27401
435.374	-11.4146
435.586	106.62802
435.798	89.7604
436.009	102.41098
436.221	1.22931
436.433	9.65906
436.645	64.46165
436.856	56.02946
437.068	30.7351
437.28	15.98162
437.491	64.46165
437.703	34.9506
437.915	77.11062
438.126	43.38186
438.338	22.3044
438.55	-7.20006
438.761	64.46165
438.973	72.8942
439.184	64.46165
439.396	47.59764
439.608	68.67788
439.819	81.32712
440.031	47.59764
440.242	47.59764
440.454	7.55158
440.665	15.98162
440.877	30.7351
441.088	79.21886
441.3	56.02946
441.511	49.70556
441.723	58.13747
441.934	115.06236
442.146	20.19678
442.357	30.7351
442.569	51.8135
442.78	131.93208
442.991	56.02946
443.203	47.59764
443.414	53.92147
443.626	56.02946
443.837	125.60578
444.048	85.54372
444.26	51.8135
444.471	32.84284
444.682	5.44413
444.894	32.84284
445.105	56.02946
445.316	93.97717
445.528	51.8135
445.739	72.8942
445.95	119.27966
446.161	85.54372
446.373	79.21886
446.584	11.76656
446.795	72.8942
447.006	13.87408
447.217	-11.4146
447.429	89.7604
447.64	102.41098
447.851	98.19403
448.062	98.19403
448.273	60.24551
448.484	123.49705
448.695	100.3025
448.907	22.3044
449.118	85.54372
449.329	102.41098
449.54	41.27401
449.751	75.0024
449.962	9.65906
450.173	115.06236
450.384	47.59764
450.595	127.71452
450.806	-2.98542
451.017	106.62802
451.228	41.27401
451.439	56.02946
451.65	37.05838
451.861	64.46165
452.072	83.43541
452.283	13.87408
452.494	136.14973
452.705	100.3025
452.915	53.92147
453.126	70.78603
453.337	140.36746
453.548	100.3025
453.759	134.0409
453.97	30.7351
454.181	119.27966
454.391	98.19403
454.602	58.13747
454.813	89.7604
455.024	68.67788
455.235	81.32712
455.445	98.19403
455.656	119.27966
455.867	26.51971
456.078	102.41098
456.288	83.43541
456.499	119.27966
456.71	34.9506
456.921	165.67563
457.131	117.171
457.342	119.27966
457.553	83.43541
457.763	148.80318
457.974	172.00315
458.184	142.47636
458.395	136.14973
458.606	148.80318
458.816	131.93208
459.027	66.56975
459.237	144.58528
459.448	235.28834
459.659	138.25859
459.869	271.15779
460.08	106.62802
460.29	256.38735
460.501	174.11236
460.711	205.753
460.922	150.91217
461.132	178.33085
461.343	186.76807
461.553	250.05744
461.764	190.9868
461.974	104.51949
462.184	190.9868
462.395	222.62986
462.605	195.20561
462.816	161.45739
463.026	231.06877
463.236	245.8376
463.447	169.89395
463.657	241.61784
463.867	203.64348
464.078	201.53399
464.288	216.30089
464.498	292.26001
464.709	269.04767
464.919	241.61784
465.129	216.30089
465.339	275.37808
465.55	237.39815
465.76	266.93757
465.97	243.72771
466.18	302.81182
466.391	313.36408
466.601	317.58511
466.811	349.24509
467.021	359.79929
467.231	347.1343
467.441	334.46994
467.651	328.13799
467.862	334.46994
468.072	423.13331
468.282	402.02032
468.492	378.79793
468.702	423.13331
468.912	463.25235
469.122	326.02738
469.332	440.02485
469.542	475.92268
469.752	558.2926
469.962	499.153
470.172	625.89368
470.382	437.91335
470.592	621.66823
470.802	490.7054
471.012	668.15088
471.222	714.63918
471.432	602.65432
471.642	579.4165
471.852	769.58667
472.062	682.94202
472.272	716.75241
472.482	759.0193
472.691	818.19972
472.901	697.73371
473.111	790.72215
473.321	883.72929
473.531	877.38736
473.741	828.76843
473.95	900.64146
474.16	942.92406
474.37	894.29933
474.58	942.92406
474.79	1095.16356
474.999	1021.15431
475.209	951.38093
475.419	1158.60493
475.628	1279.15286
475.838	1112.08086
476.048	1302.41753
476.258	1217.82017
476.467	1458.92975
476.677	1437.77923
476.886	1526.61123
477.096	1391.24818
477.306	1528.72626
477.515	1416.62872
477.725	1598.52171
477.935	1532.95633
478.144	1691.57901
478.354	1600.6367
478.563	1801.54821
478.773	1712.72767
478.982	1966.47931
479.192	1864.98694
479.401	1970.70787
479.611	1892.4757
479.82	1928.42118
480.03	2067.9576
480.239	2270.86219
480.449	2237.05016
480.658	2260.29618
480.868	2249.72994
481.077	2279.31484
481.287	2317.34988
481.496	2456.7841
481.705	2380.73462
481.915	2446.2225
482.124	2279.31484
482.333	2591.94773
482.543	2456.7841
482.752	2693.28827
482.961	2807.26077
483.171	2792.48877
483.38	2661.62245
483.589	2845.2428
483.799	2794.5991
484.008	2963.37958
484.217	2891.65909
484.426	3279.58007
484.636	2893.76876
484.845	3254.29749
485.054	3163.68186
485.263	3361.73146
485.472	3167.89722
485.682	3294.32711
485.891	3422.80124
486.1	3427.0124
486.309	3523.84924
486.518	3776.28195
486.727	3401.74437
486.936	3557.52258
487.146	3563.83581
487.355	3801.51002
487.564	3757.35905
487.773	3881.38015
487.982	4009.53213
488.191	3954.9192
488.4	4026.33333
488.609	3847.75411
488.818	3927.60758
489.027	3952.81843
489.236	4076.729
489.445	4301.26277
489.654	4066.23088
489.863	4471.07362
490.072	4305.45734
490.281	4418.67812
490.49	4573.72885
490.698	4362.07564
490.907	4504.59953
491.116	4720.28636
491.325	4573.72885
491.534	4707.7286
491.743	4378.8484
491.952	4862.55061
492.16	4695.17003
492.369	4975.44996
492.578	4709.82162
492.787	5167.6421
492.996	4766.32452
493.204	4908.55471
493.413	5111.25822
493.622	5261.57748
493.831	5046.50032
494.039	5207.30947
494.248	5138.40813
494.457	5488.91339
494.665	5422.2015
494.874	5393.00747
495.083	5347.12186
495.291	5459.7299
495.5	5478.49124
495.709	5609.76725
495.917	5638.927
496.126	5674.32904
496.335	5643.0923
496.543	5747.19413
496.752	5849.15667
496.96	5894.91735
497.169	5690.98646
497.377	5951.06257
497.586	5763.84494
497.794	6038.36542
498.003	5934.42874
498.211	6042.52166
498.42	5934.42874
498.628	6223.22716
498.837	6160.935
499.045	6285.49822
499.254	5996.79781
499.462	6405.82927
499.671	6117.31792
499.879	6314.55083
500.087	6233.60713
500.296	6540.58995
500.504	6117.31792
500.713	6445.231
500.921	6465.96539
501.129	6407.90325
501.338	6418.27283
501.546	6644.18543
501.754	6426.56807
501.962	6457.67191
502.171	6528.15461
502.379	6894.64895
502.587	6729.09075
502.795	6611.04115
503.004	6729.09075
503.212	6890.51177
503.42	6733.23149
503.628	7045.59416
503.837	6820.16581
504.045	6983.57642
504.253	7041.46027
504.461	6979.44119
504.669	7231.52666
504.877	7140.64885
505.085	7208.81123
505.294	7427.59471
505.502	7359.50924
505.71	7505.9669
505.918	7324.42563
506.126	7520.40048
506.334	7142.71473
506.542	7452.34719
506.75	7363.63631
506.958	7631.70997
507.166	7563.69492
507.374	7627.58851
507.582	7563.69492
507.79	7769.73014
507.998	7433.78312
508.206	7917.94561
508.414	7707.94177
508.622	7736.77869
508.83	7734.71905
509.037	7985.84194
509.245	7487.40788
509.453	7926.17665
509.661	7924.11892
509.869	7942.63776
510.077	7740.89792
510.285	7963.21231
510.492	7837.67559
510.7	8059.88533
510.908	7973.49881
511.116	8154.45824
511.324	8197.61875
511.531	8191.4535
511.739	8127.73542
511.947	8146.2362
512.155	8000.24133
512.362	8288.02197
512.57	8181.17769
512.778	8366.06691
512.985	8201.72882
513.193	8312.67078
513.401	8409.18497
513.608	8312.67078
513.816	8394.81323
514.024	8306.50885
514.231	8400.97266
514.439	8684.12133
514.646	8630.80187
514.854	8743.57829
515.061	8474.87235
515.269	8688.22231
515.477	8548.74729
515.684	8772.27612
515.892	8647.2092
516.099	8911.61508
516.307	8792.77239
516.514	8899.32381
516.722	8764.07711
516.929	9020.16028
517.136	8706.67579
517.344	8981.25354
517.551	8854.2503
517.759	9042.68234
517.966	9132.74959
518.173	9382.30961
518.381	9376.17586
518.588	9224.8295
518.796	9310.73995
519.003	9431.37435
519.21	9104.09545
519.418	9341.41513
519.625	9398.66557
519.832	9435.46266
520.039	9351.63937
520.247	9316.87528
520.454	9482.47353
520.661	9539.69271
520.868	9255.51519
521.076	9547.86586
521.283	9333.23545
521.49	9523.34564
521.697	9549.9091
521.904	9899.07715
522.112	9774.57117
522.319	9825.60492
522.526	9572.38379
522.733	9980.69061
522.94	10021.48865
523.147	9782.7372
523.354	9827.64608
523.561	10278.3869
523.768	10098.98921
523.975	10056.16249
524.183	9911.32066
524.39	9999.05044
524.597	10052.08343
524.804	10123.45884
525.011	10188.70137
525.218	10064.32044
525.425	10141.80974
525.632	10141.80974
525.838	10168.31461
526.045	10288.57677
526.252	10331.3706
526.459	10361.93402
526.666	10251.89164
526.873	10592.08466
527.08	10561.54304
527.287	10840.38786
527.494	10504.52446
527.701	10763.06664
527.907	10610.40829
528.114	10769.17157
528.321	10681.65735
528.528	10903.45325
528.735	10907.5216
528.941	10868.87038
529.148	10842.4224
529.355	10942.10079
529.562	10872.93912
529.768	10927.8627
529.975	10767.1366
530.182	10787.48571
530.388	10716.25865
530.595	11137.31116
530.802	10976.67671
531.008	11173.90199
531.215	11228.78184
531.422	11348.67835
531.628	11360.86925
531.835	11094.61749
532.042	11224.71693
532.248	11462.44626
532.455	11371.02805
532.661	11338.519
532.868	11338.519
533.074	11255.20277
533.281	11635.07241
533.487	11649.2857
533.694	11606.64448
533.9	11667.55929
534.107	11622.88923
534.313	11846.19678
534.52	11681.77158
534.726	11805.60323
534.933	11959.84097
535.139	11689.89269
535.345	11568.06085
535.552	11872.58078
535.758	11819.81135
535.965	11896.93399
536.171	11754.85647
536.377	12324.95998
536.584	11842.13757
536.79	12101.86077
536.996	12146.48774
537.203	12118.08918
537.409	12018.68242
537.615	12116.06066
537.821	12073.45987
538.028	12061.28759
538.234	12069.40247
538.44	12176.91313
538.646	12209.36505
538.853	12541.89374
539.059	12416.20309
539.265	12408.09315
539.471	12503.37829
539.677	12363.48654
539.883	12412.14813
540.09	12726.33153
540.296	12608.7836
540.502	12714.17232
540.708	12547.97492
540.914	12825.62403
541.12	12533.78542
541.326	12892.48699
541.532	12825.62403
541.738	12882.35661
541.944	12928.95523
542.15	12999.86089
542.356	12916.79934
542.562	13064.68353
542.768	13174.06055
542.974	13105.19514
543.18	12856.01702
543.386	13532.48549
543.592	13293.54992
543.798	13595.248
544.004	13190.2634
544.21	13404.925
544.415	13153.80657
544.621	13599.29707
544.827	13459.59562
545.033	13408.97477
545.239	13362.40142
545.445	13757.20078
545.651	13500.09058
545.856	13797.68583
546.062	13510.21409
546.268	13498.06587
546.474	13491.99171
546.679	13603.34614
546.885	13141.65397
547.091	13524.38685
547.297	13172.03517
547.502	13779.4677
547.708	13481.86804
547.914	13660.03162
548.119	13878.65241
548.325	14052.71604
548.531	13595.248
548.736	14139.74117
548.942	13846.26632
549.147	13981.87845
549.353	14251.04666
549.559	14068.90708
549.764	13862.45946
549.97	14119.50313
550.175	13979.85448
550.381	14174.14534
550.586	14291.51993
550.792	14238.90453
550.997	14224.73863
551.203	14079.0264
551.408	14285.44899
551.614	14358.29928
551.819	14384.60579
552.025	14421.02976
552.23	14311.7563
552.435	14358.29928
552.641	14653.72798
552.846	14738.70975
553.052	14431.14744
553.257	15007.81042
553.462	14835.82998
553.668	14886.41283
553.873	15131.23021
554.078	14906.64587
554.283	14807.50342
554.489	14910.69247
554.694	14906.64587
554.899	14882.36622
555.105	15072.55531
555.31	14801.43342
555.515	14627.42375
555.72	15165.62581
555.925	14690.14894
556.131	15129.20694
556.336	14708.3593
556.541	15242.51012
556.746	15197.99814
556.951	14874.27298
557.156	15090.76477
557.361	15252.62649
557.567	15402.34947
557.772	15147.41637
557.977	15315.34809
558.182	15157.53273
558.387	15163.60254
558.592	15181.81197
558.797	15384.13982
559.002	15452.93202
559.207	15582.42496
559.412	15675.49983
559.617	15335.58091
559.822	15671.45306
560.027	15078.62513
560.232	15624.91544
560.437	15420.55915
560.642	15564.21485
560.847	15463.04857
561.051	15461.02526
561.256	15531.84147
561.461	15786.78752
561.666	15717.99114
561.871	15841.42081
562.076	15687.64016
562.281	15972.94901
562.485	15675.49983
562.69	15689.66355
562.895	15584.4483
563.1	15942.59586
563.305	15564.21485
563.509	16021.51467
563.714	15946.64293
563.919	16357.45208
564.123	15724.06136
564.328	15863.67906
564.533	15954.73709
564.737	15778.69376
564.942	15916.29005
565.147	15881.89046
565.351	16120.6722
565.556	16003.30245
565.761	16039.72701
565.965	16310.90368
566.17	16074.12842
566.374	16136.86153
566.579	16197.57247
566.784	16339.23737
566.988	16268.40382
567.193	16549.72828
567.397	16493.05547
567.602	16491.03147
567.806	16092.3411
568.011	16638.78901
568.215	16644.86148
568.42	16640.81316
568.624	16511.27155
568.828	16466.74366
569.033	16074.12842
569.237	16254.23738
569.442	16553.77641
569.646	16250.18984
569.85	16849.31403
570.055	16614.49929
570.259	16683.321
570.463	16869.55821
570.668	16764.29117
570.872	16561.87268
571.076	16857.41167
571.281	17078.08853
571.485	17155.02933
571.689	17084.16265
571.893	16873.60708
572.098	16770.36409
572.302	16847.28962
572.506	17132.75658
572.71	16938.39036
572.914	17248.17371
573.119	17112.50891
573.323	16630.6924
573.527	16867.53378
573.731	16982.93042
573.935	16865.50936
574.139	17193.50127
574.343	16841.21642
