Data from Scatter_Coeff_Baseline_USB4F045381__2__0002.txt Node

Date: Thu Feb 13 19:12:41 EST 2025
User: mmckonesweet
Spectrometer: USB4F04538
Trigger mode: 4
Integration Time (sec): 2.400000E-3
Scans to average: 1
Electric dark correction enabled: true
Nonlinearity correction enabled: true
Boxcar width: 0
XAxis mode: Wavelengths
Number of Pixels in Spectrum: 3648
>>>>>Begin Spectral Data<<<<<
345.52	40.04444
345.736	40.04444
345.952	40.04444
346.168	14.75222
346.384	73.77262
346.6	-25.28676
346.816	4.2148
347.032	6.32224
347.248	40.04444
347.464	14.75222
347.68	8.4297
347.896	27.39791
348.112	-2.10736
348.328	-2.10736
348.544	-29.50088
348.76	10.53718
348.975	-52.67674
349.191	-31.6079
349.407	56.90779
349.623	-6.32202
349.839	18.96735
350.055	6.32224
350.27	-31.6079
350.486	67.44814
350.702	65.34002
350.918	42.15228
351.133	18.96735
351.349	-2.10736
351.565	0
351.781	-2.10736
351.996	18.96735
352.212	31.61332
352.428	-8.42931
352.644	-35.82187
352.859	84.31387
353.075	-6.32202
353.291	16.85977
353.506	-25.28676
353.722	-27.39383
353.938	77.98905
354.153	6.32224
354.369	-2.10736
354.584	-18.9654
354.8	-25.28676
355.016	31.61332
355.231	-4.2147
355.447	27.39791
355.662	-2.10736
355.878	86.42218
356.093	-109.5499
356.309	40.04444
356.524	31.61332
356.74	61.12386
356.955	-10.53658
357.171	23.18258
357.386	4.2148
357.602	14.75222
357.817	-31.6079
358.033	10.53718
358.248	56.90779
358.464	27.39791
358.679	-23.17966
358.895	2.10739
359.11	-71.63655
359.325	16.85977
359.541	-35.82187
359.756	6.32224
359.972	92.74727
360.187	10.53718
360.402	59.01582
360.618	-54.78349
360.833	27.39791
361.048	12.64469
361.264	23.18258
361.479	-29.50088
361.694	2.10739
361.909	-23.17966
362.125	-8.42931
362.34	86.42218
362.555	-2.10736
362.77	33.72107
362.986	14.75222
363.201	10.53718
363.416	56.90779
363.631	-2.10736
363.847	18.96735
364.062	84.31387
364.277	16.85977
364.492	105.39804
364.707	61.12386
364.922	-10.53658
365.138	33.72107
365.353	-23.17966
365.568	10.53718
365.783	-6.32202
365.998	0
366.213	31.61332
366.428	-2.10736
366.643	48.47593
366.858	42.15228
367.073	86.42218
367.288	18.96735
367.503	31.61332
367.718	61.12386
367.933	18.96735
368.148	4.2148
368.363	29.5056
368.578	40.04444
368.793	56.90779
369.008	2.10739
369.223	52.69182
369.438	56.90779
369.653	16.85977
369.868	-8.42931
370.083	56.90779
370.298	56.90779
370.513	23.18258
370.728	-16.85823
370.943	33.72107
371.157	-8.42931
371.372	6.32224
371.587	-4.2147
371.802	18.96735
372.017	-10.53658
372.232	4.2148
372.446	56.90779
372.661	14.75222
372.876	12.64469
373.091	10.53718
373.306	-40.03573
373.52	4.2148
373.735	31.61332
373.95	61.12386
374.165	-16.85823
374.379	8.4297
374.594	-54.78349
374.809	6.32224
375.023	54.79979
375.238	52.69182
375.453	90.63889
375.667	40.04444
375.882	46.36803
376.097	46.36803
376.311	-56.89021
376.526	25.29023
376.741	-42.14263
376.955	6.32224
377.17	6.32224
377.384	-18.9654
377.599	14.75222
377.813	18.96735
378.028	18.96735
378.242	6.32224
378.457	-42.14263
378.672	21.07496
378.886	31.61332
379.101	48.47593
379.315	67.44814
379.53	73.77262
379.744	-40.03573
379.958	10.53718
380.173	-44.2495
380.387	35.82884
380.602	0
380.816	-16.85823
381.031	75.88082
381.245	18.96735
381.459	40.04444
381.674	33.72107
381.888	18.96735
382.103	16.85977
382.317	4.2148
382.531	59.01582
382.746	73.77262
382.96	-23.17966
383.174	2.10739
383.388	-6.32202
383.603	-35.82187
383.817	44.26014
384.031	73.77262
384.246	14.75222
384.46	75.88082
384.674	16.85977
384.888	54.79979
385.103	149.68192
385.317	56.90779
385.531	84.31387
385.745	63.23193
385.959	27.39791
386.174	-8.42931
386.388	65.34002
386.602	18.96735
386.816	23.18258
387.03	14.75222
387.244	-6.32202
387.458	99.07256
387.672	63.23193
387.887	27.39791
388.101	73.77262
388.315	10.53718
388.529	-16.85823
388.743	46.36803
388.957	14.75222
389.171	132.81075
389.385	-16.85823
389.599	33.72107
389.813	12.64469
390.027	6.32224
390.241	-27.39383
390.455	65.34002
390.669	122.26697
390.883	-8.42931
391.097	23.18258
391.311	-16.85823
391.525	56.90779
391.738	29.5056
391.952	-23.17966
392.166	-27.39383
392.38	63.23193
392.594	118.04961
392.808	27.39791
393.022	27.39791
393.236	-23.17966
393.449	56.90779
393.663	-16.85823
393.877	56.90779
394.091	-2.10736
394.305	12.64469
394.518	73.77262
394.732	-14.75104
394.946	84.31387
395.16	61.12386
395.373	77.98905
395.587	46.36803
395.801	77.98905
396.015	-2.10736
396.228	31.61332
396.442	2.10739
396.656	75.88082
396.869	69.55627
397.083	-16.85823
397.297	35.82884
397.51	82.20557
397.724	37.93663
397.938	54.79979
398.151	65.34002
398.365	-6.32202
398.578	29.5056
398.792	75.88082
399.005	56.90779
399.219	56.90779
399.433	46.36803
399.646	40.04444
399.86	67.44814
400.073	44.26014
400.287	14.75222
400.5	33.72107
400.714	-16.85823
400.927	-33.71489
401.141	29.5056
401.354	48.47593
401.567	31.61332
401.781	2.10739
401.994	61.12386
402.208	-10.53658
402.421	21.07496
402.635	31.61332
402.848	37.93663
403.061	61.12386
403.275	73.77262
403.488	10.53718
403.701	8.4297
403.915	80.0973
404.128	-6.32202
404.341	54.79979
404.555	88.53052
404.768	-14.75104
404.981	-6.32202
405.195	63.23193
405.408	27.39791
405.621	107.50658
405.834	52.69182
406.048	63.23193
406.261	25.29023
406.474	10.53718
406.687	6.32224
406.9	69.55627
407.114	73.77262
407.327	134.91958
407.54	65.34002
407.753	40.04444
407.966	59.01582
408.179	48.47593
408.392	71.66443
408.605	59.01582
408.819	52.69182
409.032	44.26014
409.245	56.90779
409.458	0
409.671	88.53052
409.884	-2.10736
410.097	77.98905
410.31	65.34002
410.523	48.47593
410.736	40.04444
410.949	37.93663
411.162	120.15828
411.375	90.63889
411.588	73.77262
411.801	65.34002
412.014	63.23193
412.227	-2.10736
412.44	12.64469
412.653	120.15828
412.865	82.20557
413.078	16.85977
413.291	52.69182
413.504	65.34002
413.717	61.12386
413.93	86.42218
414.143	42.15228
414.356	52.69182
414.568	-10.53658
414.781	50.58386
414.994	35.82884
415.207	111.72373
415.42	151.79091
415.632	86.42218
415.845	82.20557
416.058	73.77262
416.271	71.66443
416.483	126.48442
416.696	130.70195
416.909	166.55444
417.121	48.47593
417.334	14.75222
417.547	94.85568
417.759	42.15228
417.972	107.50658
418.185	65.34002
418.397	103.28953
418.61	71.66443
418.823	65.34002
419.035	99.07256
419.248	158.11802
419.46	61.12386
419.673	75.88082
419.885	23.18258
420.098	80.0973
420.311	67.44814
420.523	23.18258
420.736	151.79091
420.948	90.63889
421.161	139.13728
421.373	183.42829
421.586	130.70195
421.798	122.26697
422.01	128.59318
422.223	126.48442
422.435	141.24617
422.648	149.68192
422.86	52.69182
423.073	134.91958
423.285	35.82884
423.497	94.85568
423.71	48.47593
423.922	162.33619
424.134	82.20557
424.347	179.20971
424.559	130.70195
424.771	198.19399
424.984	191.86571
425.196	103.28953
425.408	134.91958
425.621	126.48442
425.833	177.10045
426.045	92.74727
426.257	187.64696
426.47	158.11802
426.682	170.77278
426.894	145.464
427.106	172.88198
427.318	103.28953
427.531	158.11802
427.743	200.30345
427.955	153.89993
428.167	219.28955
428.379	193.97512
428.591	187.64696
428.804	126.48442
429.016	255.15652
429.228	250.93658
429.44	225.6186
429.652	265.70668
429.864	202.41294
430.076	253.04654
430.288	217.1799
430.5	204.52245
430.712	272.03701
430.924	238.27725
431.136	259.37653
431.348	242.49695
431.56	238.27725
431.772	263.59661
431.984	234.05762
432.196	322.68561
432.408	305.80158
432.62	307.91202
432.832	263.59661
433.044	286.80843
433.256	293.13931
433.468	424.01305
433.679	310.02248
433.891	217.1799
434.103	341.68151
434.315	367.01157
434.527	331.12806
434.739	267.81677
434.95	272.03701
435.162	364.90064
435.374	337.46008
435.586	312.13296
435.798	299.47036
436.009	388.12183
436.221	409.23374
436.433	405.01123
436.645	413.45632
436.856	409.23374
437.068	426.12445
437.28	419.79031
437.491	428.23586
437.703	417.67897
437.915	426.12445
438.126	392.34408
438.338	525.37723
438.55	478.91436
438.761	495.80913
438.973	466.24391
439.184	428.23586
439.396	546.49901
439.608	421.90167
439.819	476.80258
440.031	495.80913
440.242	497.92105
440.454	476.80258
440.665	529.60148
440.877	643.67633
441.088	563.39742
441.3	510.59283
441.511	525.37723
441.723	497.92105
441.934	500.03297
442.146	582.40916
442.357	673.25728
442.569	538.05013
442.78	605.64718
442.991	605.64718
443.203	630.9995
443.414	641.5635
443.626	590.85917
443.837	688.04861
444.048	656.3536
444.26	671.14428
444.471	588.74665
444.682	764.12683
444.894	679.59635
445.105	639.45067
445.316	755.67302
445.528	630.9995
445.739	696.50105
445.95	783.14849
446.161	711.29325
446.373	669.03129
446.584	797.94367
446.795	751.44618
447.006	829.64917
447.217	726.08599
447.429	848.67345
447.64	770.4673
447.851	850.78731
448.062	768.3538
448.273	812.73931
448.484	855.01504
448.695	880.38215
448.907	831.76294
449.118	920.54914
449.329	842.33194
449.54	1019.92089
449.751	905.75044
449.962	916.3209
450.173	869.81237
450.384	952.26187
450.595	939.57658
450.806	1112.96198
451.017	969.17598
451.228	977.6332
451.439	1053.75279
451.65	994.54797
451.861	931.11986
452.072	1100.27396
452.283	1081.24227
452.494	1163.71566
452.705	1070.66929
452.915	1244.08014
453.126	1206.01215
453.337	1248.30998
453.548	1161.60087
453.759	1373.09412
453.97	1233.5056
454.181	1347.71381
454.391	1294.83886
454.602	1360.40394
454.813	1387.89937
455.024	1349.82882
455.235	1364.63399
455.445	1368.86405
455.656	1455.58092
455.867	1472.50133
456.078	1430.20029
456.288	1440.77555
456.499	1559.2179
456.71	1535.95263
456.921	1375.20915
457.131	1650.16205
457.342	1392.12945
457.553	1544.41274
457.763	1409.0498
457.974	1840.49304
458.184	1654.39191
458.395	1793.97054
458.606	1688.23045
458.816	1878.55522
459.027	1969.47454
459.237	1984.27433
459.448	1933.53095
459.659	1853.18061
459.869	1984.27433
460.08	1933.53095
460.29	2136.48148
460.501	2172.41361
460.711	2140.70891
460.922	2119.57144
461.132	2341.47234
461.343	2229.47736
461.553	2358.37491
461.764	2246.38392
461.974	2301.32623
462.184	2221.02386
462.395	2440.76557
462.605	2573.82309
462.816	2333.02082
463.026	2474.56218
463.236	2622.38809
463.447	2573.82309
463.657	2537.92315
463.867	2708.94419
464.078	2685.72392
464.288	2814.47067
464.498	2930.50979
464.709	2900.97668
464.919	2881.9896
465.129	3088.67291
465.339	3109.75475
465.55	3170.88306
465.76	2989.56735
465.97	3354.18446
466.18	3227.7833
466.391	3579.44279
466.601	3337.33454
466.811	3440.52272
467.021	3461.5763
467.231	3655.18339
467.441	3419.46735
467.651	3892.7628
467.862	3781.36283
468.072	3789.77231
468.282	3878.0528
468.492	3867.54505
468.702	4155.27336
468.912	4230.81608
469.122	3949.49216
469.332	4291.64988
469.542	4163.66834
469.752	4509.66285
469.962	4209.83474
470.172	4637.42507
470.382	4804.8556
470.592	4898.97144
470.802	4637.42507
471.012	4926.15184
471.222	4915.6983
471.432	4903.15329
471.642	5005.57996
471.852	5055.72794
472.062	5120.48267
472.272	5366.76368
472.482	5358.4205
472.691	5489.78187
472.901	5577.30425
473.111	5354.24878
473.321	5735.57235
473.531	5798.00908
473.741	5793.84729
473.95	5989.34929
474.16	5920.73935
474.37	6130.64646
474.58	5956.08707
474.79	6249.00301
474.999	6414.98919
475.209	6307.11518
475.419	6419.13693
475.628	6711.31905
475.838	6537.30848
476.048	6934.80936
476.258	6897.5794
476.467	7281.93848
476.677	7265.42274
476.886	7471.76884
477.096	7298.45281
477.306	7087.78913
477.515	7314.96574
477.725	7712.91987
477.935	7484.14269
478.144	7638.75061
478.354	7782.94353
478.563	8058.68576
478.773	7908.51379
478.982	8167.64711
479.192	8249.84497
479.401	8430.56974
479.611	8467.51771
479.82	8615.248
480.03	8832.56412
480.239	8947.29028
480.449	8600.88962
480.658	9016.91829
480.868	9313.63721
481.077	9289.09466
481.287	9262.50418
481.496	9471.06225
481.705	9573.23506
481.915	9781.54634
482.124	9297.27577
482.333	9565.0627
482.543	9791.75358
482.752	10034.57681
482.961	10116.15215
483.171	10307.7668
483.38	10112.07392
483.589	10485.00688
483.799	10360.7455
484.008	10808.68143
484.217	10623.47174
484.426	10568.49999
484.636	10672.32796
484.845	11101.56401
485.054	10944.98224
485.263	11048.69954
485.472	11024.29806
485.682	11337.33372
485.891	11442.97922
486.1	11308.88611
486.309	11877.48534
486.518	11780.06137
486.727	11727.2818
486.936	11914.01435
487.146	11980.97732
487.355	12191.95618
487.564	12155.4465
487.773	12605.57439
487.982	12070.24777
488.191	12526.52162
488.4	12502.19576
488.609	12625.84281
488.818	12613.68183
489.027	12698.80414
489.236	12911.5655
489.445	13020.96257
489.654	13093.88584
489.863	13478.66219
490.072	13114.1412
490.281	13324.76994
490.49	13395.64421
490.698	13525.23046
490.907	13395.64421
491.116	13774.23838
491.325	13832.94059
491.534	13924.02549
491.743	13863.30284
491.952	13776.26264
492.16	14053.55932
492.369	14266.05559
492.578	14185.10733
492.787	14533.1654
492.996	14434.01411
493.204	14460.31988
493.413	14642.43067
493.622	15004.60689
493.831	14658.61785
494.039	14573.63441
494.248	14852.85958
494.457	15083.51471
494.665	15190.74809
494.874	15057.21214
495.083	15304.05144
495.291	15455.79837
495.5	15526.61453
495.709	15534.70785
495.917	15575.17463
496.126	15648.01558
496.335	15668.24937
496.543	16105.32615
496.752	15702.64701
496.96	15975.81571
497.169	15902.9686
497.377	15992.00419
497.586	16178.17853
497.794	16166.03632
498.003	16161.98893
498.211	16311.74694
498.42	16008.19276
498.628	16576.8846
498.837	16495.92281
499.045	16902.79297
499.254	16740.84317
499.462	16880.52392
499.671	16740.84317
499.879	16933.16036
500.087	17149.79858
500.296	16981.74941
500.504	16963.52834
500.713	17255.09229
500.921	17267.24207
501.129	17487.98205
501.338	17131.57545
501.546	17575.07315
501.754	17230.79304
501.962	17455.57756
502.171	17508.23527
502.379	18010.62086
502.587	17777.63393
502.795	17957.94151
503.004	17309.76715
503.212	17919.44657
503.42	17765.47934
503.628	18063.30261
503.837	17945.78508
504.045	18190.96468
504.253	18140.3034
504.461	18314.58787
504.669	18492.95414
504.877	18462.54871
505.085	18186.91169
505.294	18934.94534
505.502	18578.09393
505.71	18669.32272
505.918	18833.55461
506.126	18963.33654
506.334	18470.65674
506.542	19251.34939
506.75	18843.69323
506.958	18961.30857
507.166	19435.96449
507.374	18859.91524
507.582	19089.07853
507.79	19131.6721
507.998	19314.23641
508.206	19586.11638
508.414	19257.43506
508.622	19247.2923
508.83	18932.91743
509.037	19567.85345
509.245	19184.40949
509.453	19644.96592
509.661	19539.44511
509.869	19811.3871
510.077	19604.37966
510.285	19953.4763
510.492	20030.61905
510.7	20229.5942
510.908	19963.62631
511.116	19937.23649
511.324	19941.29641
511.531	20343.31241
511.739	20331.12769
511.947	19996.10707
512.155	20130.10158
512.362	20477.35435
512.57	20365.65147
512.778	20702.82959
512.985	20471.26114
513.193	20576.88212
513.401	20674.38844
513.608	20542.35094
513.816	20814.57056
514.024	21094.99378
514.231	20979.15731
514.439	21151.90077
514.646	21088.89679
514.854	21379.56048
515.061	20869.4298
515.269	21113.28496
515.477	21263.69162
515.684	20987.28575
515.892	21292.14942
516.099	21166.12801
516.307	21481.21055
516.514	21894.01104
516.722	21454.78057
516.929	21839.0973
517.136	21399.88969
517.344	21696.74146
517.551	21501.54176
517.759	21501.54176
517.966	21853.33392
518.173	21985.54014
518.381	21743.51342
518.588	21922.48593
518.796	22038.42713
519.003	21983.50608
519.21	22361.90647
519.418	22372.08029
519.625	22388.35859
519.832	22284.58844
520.039	22207.27571
520.247	22459.57887
520.454	22508.41819
520.661	22990.81508
520.868	22614.24377
521.076	22673.26604
521.283	22661.05429
521.49	22626.45503
521.697	22880.88484
521.904	22557.25957
522.112	22606.103
522.319	22772.99999
522.526	22494.17318
522.733	23349.17319
522.94	23310.48197
523.147	23310.48197
523.354	23420.44946
523.561	23988.75653
523.768	23483.58308
523.975	23603.74882
524.183	23251.42919
524.39	23563.01348
524.597	23768.73928
524.804	23937.82362
525.011	23850.22321
525.218	23713.74028
525.425	23567.08696
525.632	23683.18622
525.838	24102.85262
526.045	24176.2047
526.252	24375.90313
526.459	24510.40815
526.666	24245.48492
526.873	24210.84442
527.08	24520.59838
527.287	24640.84785
527.494	24194.54328
527.701	24824.29579
527.907	24673.45938
528.114	24850.79543
528.321	24701.99498
528.528	24848.75699
528.735	25064.84548
528.941	24995.53126
529.148	24500.21798
529.355	24865.06464
529.562	24793.71977
529.768	25123.9685
529.975	24918.06556
530.182	24934.37385
530.388	24993.49265
530.595	25386.98626
530.802	24962.91372
531.008	25295.23182
531.215	25486.90146
531.422	25297.27076
531.628	25480.78406
531.835	25462.43197
532.042	25772.4
532.248	25896.8076
532.455	25698.98243
532.661	25937.59848
532.868	26115.04718
533.074	26280.26991
533.281	26178.27925
533.487	26761.72045
533.694	26261.91128
533.9	26875.97542
534.107	26098.7295
534.313	26476.10359
534.52	26390.42451
534.726	26396.54435
534.933	26461.82355
535.139	26710.71525
535.345	26863.7336
535.552	26839.25011
535.758	26867.8142
535.965	26808.64605
536.171	26973.91185
536.377	26971.87148
536.584	26943.30637
536.79	27257.5374
536.996	27557.5143
537.203	27171.83485
537.409	27224.88854
537.615	27520.78097
537.821	27384.05492
538.028	27851.395
538.234	27447.31553
538.44	27606.49269
538.646	27530.98464
538.853	27806.49497
539.059	27279.9837
539.265	27553.4328
539.471	27539.14759
539.677	27573.84035
539.883	28067.7393
540.09	27843.23131
540.296	28004.46748
540.502	28500.4653
540.708	28282.05503
540.914	28545.37359
541.12	28455.55751
541.326	28537.20841
541.532	28384.11437
541.738	28537.20841
541.944	28182.03952
542.15	28890.36792
542.356	28543.3323
542.562	29259.89184
542.768	28696.43252
542.974	28914.86569
543.18	28502.50657
543.386	29104.72848
543.592	29245.60023
543.798	28863.82884
544.004	29104.72848
544.21	29404.85253
544.415	28816.87551
544.621	29353.80943
544.827	29272.14184
545.033	29462.02158
545.239	29421.18646
545.445	29947.99251
545.651	29457.93805
545.856	29629.45002
546.062	29592.69682
546.268	29794.84374
546.474	29513.06608
546.679	29151.68518
546.885	29410.97774
547.091	29672.32919
547.297	29337.47578
547.502	29494.68998
547.708	29627.40816
547.914	29843.85067
548.119	30013.3379
548.325	30286.98455
548.531	29925.5303
548.736	30074.60027
548.942	30092.97918
549.147	29741.75362
549.353	29776.46631
549.559	30070.51608
549.764	29901.02622
549.97	29766.25666
550.175	30438.11202
550.381	30856.81229
550.586	30440.15433
550.792	30501.42418
550.997	30875.19554
551.203	30752.64265
551.408	30793.49306
551.614	30950.7723
551.819	30852.72714
552.025	31046.77802
552.23	31242.88492
552.435	31224.49931
552.641	31649.44449
552.846	31271.48501
553.052	31373.63071
553.257	31406.31817
553.462	31381.80254
553.668	31441.04906
553.873	31336.8578
554.078	31657.61722
554.283	31631.05594
554.489	31878.29183
554.694	31545.24457
554.899	31702.56775
555.105	31569.7618
555.31	31955.94172
555.515	31788.3848
555.72	31982.50679
555.925	31878.29183
556.131	32493.44063
556.336	32037.68145
556.541	32452.56098
556.746	32092.85755
556.951	31925.29012
557.156	31992.72422
557.361	31890.55216
557.567	32941.1349
557.772	32015.20272
557.977	31890.55216
558.182	32381.02375
558.387	32374.89211
558.592	32327.88355
558.797	32389.1993
559.002	32425.98969
559.207	32248.17598
559.412	32352.40961
559.617	32297.22641
559.822	32622.21752
560.027	32360.58504
560.232	32505.7047
560.437	32331.97121
560.642	32975.89244
560.847	32908.4226
561.051	33172.1849
561.256	32935.00129
561.461	33411.45136
561.666	33262.1608
561.871	33276.47566
562.076	33239.66631
562.281	32800.06781
562.485	32554.76181
562.69	33208.99256
562.895	33110.84081
563.1	33748.94897
563.305	33080.16969
563.509	33364.41291
563.714	33611.8941
563.919	33411.45136
564.123	33147.64696
564.328	33468.71769
564.533	33658.94115
564.737	32528.18905
564.942	32922.73415
565.147	33311.24091
565.351	33233.53151
565.556	32957.49129
565.761	33129.24377
565.965	33151.73659
566.17	33253.98095
566.374	33456.44614
566.579	34096.7681
566.784	33763.26898
566.988	33665.07784
567.193	34166.34425
567.397	33716.21812
567.602	33855.33012
567.806	33575.07585
568.011	34178.62283
568.215	34434.45785
568.42	34184.76218
568.624	34076.30534
568.828	34131.55564
569.033	34098.8144
569.237	34299.36947
569.442	34446.73946
