Data from Scatter_Coeff_Baseline_USB4F045381__3__0003.txt Node

Date: Thu Feb 13 19:13:41 EST 2025
User: mmckonesweet
Spectrometer: USB4F04538
Trigger mode: 4
Integration Time (sec): 2.400000E-3
Scans to average: 1
Electric dark correction enabled: true
Nonlinearity correction enabled: true
Boxcar width: 0
XAxis mode: Wavelengths
Number of Pixels in Spectrum: 3648
>>>>>Begin Spectral Data<<<<<
345.52	-81.46674
345.736	-81.46674
345.952	-81.46674
346.168	19.66988
346.384	-22.47729
346.6	0.70246
346.816	-5.61958
347.032	32.3159
347.248	-3.51226
347.464	47.07066
347.68	-1.40491
347.896	21.7775
348.112	-24.5844
348.328	-22.47729
348.544	11.23968
348.76	-51.97449
348.975	-3.51226
349.191	-1.40491
349.407	-28.79853
349.623	32.3159
349.839	-5.61958
350.055	-68.82782
350.27	-14.04863
350.486	51.28651
350.702	-98.3172
350.918	11.23968
351.133	-37.2265
351.349	-45.65407
351.565	-28.79853
351.781	-11.94141
351.996	-1.40491
352.212	44.96277
352.428	11.23968
352.644	-37.2265
352.859	15.45473
353.075	-47.7609
353.291	-22.47729
353.506	2.80986
353.722	40.74705
353.938	68.15085
354.153	23.88513
354.369	9.13219
354.584	-22.47729
354.8	11.23968
355.016	30.20817
355.231	15.45473
355.447	-22.47729
355.662	-14.04863
355.878	19.66988
356.093	-47.7609
356.309	-39.33343
356.524	-51.97449
356.74	21.7775
356.955	-3.51226
357.171	-20.37016
357.386	32.3159
357.602	-22.47729
357.817	15.45473
358.033	11.23968
358.248	-35.11954
358.464	-5.61958
358.679	32.3159
358.895	28.10047
359.11	2.80986
359.325	-37.2265
359.541	19.66988
359.756	19.66988
359.972	-35.11954
360.187	-5.61958
360.402	4.91728
360.618	15.45473
360.833	63.93463
361.048	-3.51226
361.264	23.88513
361.479	-30.90556
361.694	19.66988
361.909	-28.79853
362.125	13.34719
362.34	7.02472
362.555	7.02472
362.77	2.80986
362.986	30.20817
363.201	51.28651
363.416	-64.61464
363.631	-104.63569
363.847	-22.47729
364.062	13.34719
364.277	2.80986
364.492	53.39447
364.707	-45.65407
364.922	17.5623
365.138	74.47535
365.353	19.66988
365.568	-47.7609
365.783	30.20817
365.998	-26.69148
366.213	44.96277
366.428	2.80986
366.643	44.96277
366.858	-9.83416
367.073	11.23968
367.288	-1.40491
367.503	-47.7609
367.718	-43.54722
367.933	57.61047
368.148	7.02472
368.363	30.20817
368.578	-51.97449
368.793	19.66988
369.008	4.91728
369.223	4.91728
369.438	28.10047
369.653	32.3159
369.868	-81.46674
370.083	19.66988
370.298	7.02472
370.513	-3.51226
370.728	70.25899
370.943	-45.65407
371.157	2.80986
371.372	2.80986
371.587	-43.54722
371.802	-1.40491
372.017	-106.7418
372.232	-60.40135
372.446	-43.54722
372.661	21.7775
372.876	23.88513
373.091	-73.04089
373.306	-18.26301
373.52	-33.01256
373.735	44.96277
373.95	-39.33343
374.165	11.23968
374.379	55.50246
374.594	25.99279
374.809	40.74705
375.023	-43.54722
375.238	44.96277
375.453	61.82655
375.667	-3.51226
375.882	-39.33343
376.097	34.42366
376.311	-33.01256
376.526	7.02472
376.741	40.74705
376.955	-54.08124
377.17	-24.5844
377.384	36.53143
377.599	55.50246
377.813	40.74705
378.028	9.13219
378.242	-33.01256
378.457	-3.51226
378.672	23.88513
378.886	-9.83416
379.101	36.53143
379.315	-3.51226
379.53	-33.01256
379.744	-18.26301
379.958	-18.26301
380.173	-5.61958
380.387	-18.26301
380.602	19.66988
380.816	-58.29468
381.031	4.91728
381.245	80.80005
381.459	-18.26301
381.674	-20.37016
381.888	36.53143
382.103	51.28651
382.317	-22.47729
382.531	-22.47729
382.746	34.42366
382.96	-30.90556
383.174	-39.33343
383.388	78.6918
383.603	-56.18797
383.817	-3.51226
384.031	-3.51226
384.246	36.53143
384.46	-9.83416
384.674	-56.18797
384.888	-22.47729
385.103	15.45473
385.317	-20.37016
385.531	-14.04863
385.745	28.10047
385.959	28.10047
386.174	-11.94141
386.388	-3.51226
386.602	21.7775
386.816	-39.33343
387.03	38.63923
387.244	-5.61958
387.458	-11.94141
387.672	-18.26301
387.887	-30.90556
388.101	2.80986
388.315	2.80986
388.529	-41.44034
388.743	-35.11954
388.957	-30.90556
389.171	21.7775
389.385	-22.47729
389.599	28.10047
389.813	-47.7609
390.027	21.7775
390.241	-35.11954
390.455	-35.11954
390.669	-20.37016
390.883	11.23968
391.097	-9.83416
391.311	36.53143
391.525	42.8549
391.738	11.23968
391.952	11.23968
392.166	53.39447
392.38	-30.90556
392.594	11.23968
392.808	-22.47729
393.022	15.45473
393.236	32.3159
393.449	-70.93437
393.663	-11.94141
393.877	-30.90556
394.091	2.80986
394.305	40.74705
394.518	-70.93437
394.732	34.42366
394.946	-64.61464
395.16	51.28651
395.373	55.50246
395.587	15.45473
395.801	76.58356
396.015	11.23968
396.228	23.88513
396.442	7.02472
396.656	-64.61464
396.869	-33.01256
397.083	-20.37016
397.297	66.04272
397.51	-5.61958
397.724	21.7775
397.938	-54.08124
398.151	78.6918
398.365	4.91728
398.578	38.63923
398.792	-24.5844
399.005	-18.26301
399.219	21.7775
399.433	34.42366
399.646	28.10047
399.86	30.20817
400.073	55.50246
400.287	-1.40491
400.5	-35.11954
400.714	4.91728
400.927	-3.51226
401.141	57.61047
401.354	49.17857
401.567	57.61047
401.781	47.07066
401.994	19.66988
402.208	106.10089
402.421	47.07066
402.635	-14.04863
402.848	7.02472
403.061	0.70246
403.275	-9.83416
403.488	21.7775
403.701	36.53143
403.915	7.02472
404.128	19.66988
404.341	55.50246
404.555	-39.33343
404.768	61.82655
404.981	-16.15583
405.195	-1.40491
405.408	17.5623
405.621	4.91728
405.834	15.45473
406.048	-39.33343
406.261	74.47535
406.474	61.82655
406.687	36.53143
406.9	11.23968
407.114	-30.90556
407.327	28.10047
407.54	11.23968
407.753	-26.69148
407.966	70.25899
408.179	-11.94141
408.392	15.45473
408.605	15.45473
408.819	2.80986
409.032	-5.61958
409.245	72.36716
409.458	2.80986
409.671	2.80986
409.884	-26.69148
410.097	-1.40491
410.31	28.10047
410.523	-37.2265
410.736	19.66988
410.949	7.02472
411.162	49.17857
411.375	7.02472
411.588	25.99279
411.801	53.39447
412.014	28.10047
412.227	28.10047
412.44	0.70246
412.653	-5.61958
412.865	36.53143
413.078	28.10047
413.291	40.74705
413.504	-45.65407
413.717	47.07066
413.93	23.88513
414.143	-37.2265
414.356	11.23968
414.568	-14.04863
414.781	-37.2265
414.994	-54.08124
415.207	-49.86771
415.42	61.82655
415.632	87.12496
415.845	13.34719
416.058	36.53143
416.271	49.17857
416.483	-5.61958
416.696	47.07066
416.909	95.55848
417.121	36.53143
417.334	-37.2265
417.547	13.34719
417.759	49.17857
417.972	72.36716
418.185	36.53143
418.397	32.3159
418.61	19.66988
418.823	82.90833
419.035	38.63923
419.248	76.58356
419.46	70.25899
419.673	63.93463
419.885	19.66988
420.098	63.93463
420.311	30.20817
420.523	34.42366
420.736	-14.04863
420.948	40.74705
421.161	66.04272
421.373	-14.04863
421.586	76.58356
421.798	23.88513
422.01	53.39447
422.223	42.8549
422.435	4.91728
422.648	-14.04863
422.86	-1.40491
423.073	7.02472
423.285	44.96277
423.497	78.6918
423.71	112.42659
423.922	32.3159
424.134	40.74705
424.347	40.74705
424.559	-18.26301
424.771	114.5352
424.984	78.6918
425.196	-14.04863
425.408	44.96277
425.621	0.70246
425.833	32.3159
426.045	87.12496
426.257	53.39447
426.47	146.16698
426.682	133.51369
426.894	11.23968
427.106	-3.51226
427.318	103.99236
427.531	63.93463
427.743	106.10089
427.955	-56.18797
428.167	72.36716
428.379	101.88386
428.591	0.70246
428.804	89.23331
429.016	131.40488
429.228	38.63923
429.44	66.04272
429.652	165.14835
429.864	122.96987
430.076	146.16698
430.288	118.75249
430.5	49.17857
430.712	72.36716
430.924	171.47585
431.136	78.6918
431.348	66.04272
431.56	133.51369
431.772	40.74705
431.984	101.88386
432.196	85.01664
432.408	120.86117
432.62	93.45007
432.832	154.60294
433.044	146.16698
433.256	70.25899
433.468	74.47535
433.679	42.8549
433.891	57.61047
434.103	93.45007
434.315	141.94913
434.527	51.28651
434.739	154.60294
434.95	167.25749
435.162	150.38492
435.374	87.12496
435.586	141.94913
435.798	163.03922
436.009	116.64384
436.221	93.45007
436.433	152.49392
436.645	154.60294
436.856	59.7185
437.068	171.47585
437.28	167.25749
437.491	131.40488
437.703	133.51369
437.915	114.5352
438.126	114.5352
438.338	196.78769
438.55	152.49392
438.761	201.00661
438.973	156.71198
439.184	137.73137
439.396	243.20024
439.608	129.2961
439.819	184.1314
440.031	148.27594
440.242	165.14835
440.454	194.67826
440.665	141.94913
440.877	129.2961
441.088	108.20943
441.3	127.18734
441.511	188.35008
441.723	89.23331
441.934	188.35008
442.146	91.34168
442.357	154.60294
442.569	188.35008
442.78	241.09037
442.991	99.77538
443.203	186.24073
443.414	270.63026
443.626	264.29997
443.837	190.45945
444.048	241.09037
444.26	198.89714
444.471	251.6399
444.682	232.6511
444.894	228.43158
445.105	215.77348
445.316	291.73244
445.528	228.43158
445.739	213.66387
445.95	268.52014
446.161	184.1314
446.373	255.85985
446.584	238.98052
446.795	205.22562
447.006	251.6399
447.217	247.42003
447.429	295.95309
447.64	177.80353
447.851	317.05747
448.062	230.54133
448.273	253.74986
448.484	198.89714
448.695	232.6511
448.907	306.50506
449.118	224.21213
449.329	274.85054
449.54	314.94696
449.751	190.45945
449.962	257.96985
450.173	243.20024
450.384	241.09037
450.595	384.60334
450.806	344.49584
451.017	314.94696
451.228	344.49584
451.439	260.07987
451.65	327.61034
451.861	352.93901
452.072	378.27017
452.283	264.29997
452.494	369.82618
452.705	327.61034
452.915	414.16009
453.126	327.61034
453.337	308.61551
453.548	338.16365
453.759	428.93966
453.97	424.71685
454.181	350.82819
454.391	428.93966
454.602	494.4012
454.813	475.39473
455.024	452.16626
455.235	378.27017
455.445	447.94311
455.656	443.72001
455.867	433.16254
456.078	517.63294
456.288	393.0478
456.499	534.52983
456.71	551.42762
456.921	526.08127
457.131	490.17744
457.342	483.8419
457.553	492.28931
457.763	574.66351
457.974	716.2241
458.184	536.64201
458.395	764.83132
458.606	619.02735
458.816	737.357
459.027	648.60633
459.237	697.20543
459.448	644.38061
459.659	686.63989
459.869	581.00085
460.08	802.8755
460.29	796.53458
460.501	864.17524
460.711	760.60439
460.922	741.5837
461.132	900.11294
461.343	785.96659
461.553	855.71966
461.764	974.10935
461.974	872.63096
462.184	849.37807
462.395	982.56663
462.605	1065.03042
462.816	868.40308
463.026	1075.60333
463.236	950.85238
463.447	1071.37415
463.657	1012.16795
463.867	1337.84374
464.078	1043.885
464.288	1219.40633
464.498	1217.29145
464.709	1246.90003
464.919	1213.0617
465.129	1373.79913
465.339	1405.52473
465.55	1312.46372
465.76	1380.14423
465.97	1420.33006
466.18	1449.94078
466.391	1663.55659
466.601	1316.6937
466.811	1490.12675
467.021	1610.68286
467.231	1813.70762
467.441	1447.82572
467.651	1775.64292
467.862	1629.71757
468.072	1796.79014
468.282	1917.32054
468.492	1811.59295
468.702	1932.12136
468.912	2067.42911
469.122	2037.83285
469.332	2149.86823
469.542	1974.40784
469.752	2149.86823
469.962	2215.38813
470.172	2331.61222
470.382	2194.25356
470.592	2437.24492
470.802	2468.92961
471.012	2589.30827
471.222	2344.28948
471.432	2525.95575
471.642	2538.6271
471.852	2572.41531
472.062	2580.86189
472.272	2817.28425
472.482	2863.70465
472.691	3125.21376
472.901	2986.05235
473.111	2969.17975
473.321	3055.64152
473.531	3169.47796
473.741	3163.15494
473.95	3390.68881
474.16	3215.84227
474.37	3399.11214
474.58	3150.50846
474.79	3742.11446
474.999	3687.43584
475.209	3647.47019
475.419	3649.57382
475.628	3790.47309
475.838	3575.93569
476.048	3859.83905
476.258	4065.70596
476.467	4147.57766
476.677	4055.20731
476.886	4369.93804
477.096	4359.45477
477.306	4583.67729
477.515	4441.20986
477.725	4334.2927
477.935	4409.76952
478.144	4633.9354
478.354	4508.26609
478.563	4876.66668
478.773	4753.24661
478.982	4851.57072
479.192	5181.73541
479.401	4968.65699
479.611	4958.20578
479.82	5269.4033
480.03	5256.88184
480.239	5440.44542
480.449	5407.08374
480.658	5473.80109
480.868	5779.97398
481.077	5888.15797
481.287	5700.8761
481.496	5960.93819
481.705	5794.54093
481.915	5929.7502
482.124	6143.80096
482.333	6206.09892
482.543	6174.95258
482.752	6276.67776
482.961	6276.67776
483.171	6492.39836
483.38	6341.00548
483.589	6484.10607
483.799	6540.07183
484.008	6714.07981
484.217	6670.59305
484.426	6908.61126
484.636	6883.78866
484.845	6999.59961
485.054	6757.55646
485.263	7169.05278
485.472	7185.57677
485.682	7179.38044
485.891	7305.33337
486.1	7363.12043
486.309	7455.95667
486.518	7695.06681
486.727	7528.13232
486.936	7744.50217
487.146	7723.90558
487.355	7845.39522
487.564	7707.42679
487.773	7948.29597
487.982	8114.88671
488.191	8271.07427
488.4	8096.38318
488.609	8299.83321
488.818	8225.87387
489.027	8258.74784
489.236	8375.82055
489.445	8615.93171
489.654	8515.40401
489.863	8823.00106
490.072	8480.51644
490.281	8700.0122
490.49	8913.15144
490.698	8861.9339
490.907	8888.56842
491.116	9025.79099
491.325	9033.98088
491.534	9158.8424
491.743	9074.92617
491.952	9375.6647
492.16	9328.63426
492.369	9578.00216
492.578	9385.88757
492.787	9488.09382
492.996	9445.17212
493.204	9692.38695
493.413	9676.04924
493.622	10063.81057
493.831	9694.42909
494.039	9943.45736
494.248	9857.75139
494.457	10059.73162
494.665	9992.42064
494.874	10241.19099
495.083	9800.59956
495.291	10267.68717
495.5	10261.57287
495.709	10367.537
495.917	10375.68659
496.126	10699.46728
496.335	10473.4655
496.543	10670.97094
496.752	10719.82035
496.96	10666.89984
497.169	10579.35933
497.377	10931.42227
497.586	11132.73707
497.794	11006.67379
498.003	10807.32494
498.211	11149.00027
498.42	11118.5062
498.628	11380.67869
498.837	11179.49196
499.045	11522.87311
499.254	11435.53073
499.462	11443.65635
499.671	11396.93189
499.879	11488.34452
500.087	11634.56478
500.296	11553.33726
500.504	11630.50375
500.713	11559.42984
500.921	11811.18504
501.129	11453.81316
501.338	11557.39899
501.546	11823.36332
501.754	11693.44563
501.962	12022.23298
502.171	12032.37731
502.379	12210.88619
502.587	11939.04195
502.795	12334.59185
503.004	12111.49645
503.212	12105.41077
503.42	12352.84129
503.628	12385.28336
503.837	12403.53126
504.045	12693.39986
504.253	12263.61643
504.461	12425.83351
504.669	12533.27864
504.877	12916.29284
505.085	12760.27489
505.294	12819.03872
505.502	12827.14371
505.71	12772.43331
505.918	12486.65375
506.126	12703.53284
506.334	12768.38052
506.542	13126.96934
506.75	12887.92834
506.958	13165.45266
507.166	13133.04577
507.374	13197.85839
507.582	13033.79212
507.79	13317.34473
507.998	13108.73981
508.206	13402.39388
508.414	13222.16193
508.622	13230.26296
508.83	13185.70638
509.037	13455.03984
509.245	13341.64522
509.453	13645.35438
509.661	13473.26284
509.869	13789.08285
510.077	13475.2876
510.285	13740.50035
510.492	13738.47604
510.7	14072.44885
510.908	13536.02862
511.116	13649.40329
511.324	13762.76755
511.531	13851.83273
511.739	13766.81609
511.947	14153.40172
512.155	13940.89246
512.362	14033.99496
512.57	13880.17049
512.778	14497.41735
512.985	13922.67612
513.193	14127.09242
513.401	14313.27402
513.608	14236.37492
513.816	14175.66315
514.024	14161.49682
514.231	14072.44885
514.439	14558.12135
514.646	14193.87687
514.854	14297.08495
515.061	14529.79296
515.269	14695.71322
515.477	14598.59007
515.684	14691.66647
515.892	14497.41735
516.099	14855.55734
516.307	14669.40926
516.514	14802.95092
516.722	14713.92356
516.929	14889.95362
517.136	14730.11047
517.344	14752.36738
517.551	14392.19416
517.759	15242.00431
517.966	15219.74831
518.173	14885.907
518.381	15296.63275
518.588	15375.54083
518.796	15324.95867
519.003	15559.66233
519.21	15191.42251
519.418	15569.77904
519.625	15130.72439
519.832	15496.9391
520.039	15563.70901
520.247	15407.91354
520.454	15620.36287
520.661	15755.93017
520.868	15460.51943
521.076	15842.93841
521.283	15517.17233
521.49	15814.60993
521.697	15982.5609
521.904	15962.32537
522.112	15907.69012
522.319	15891.50208
522.526	16053.38634
522.733	16112.07165
522.94	16166.71089
523.147	16010.89087
523.354	16217.30384
523.561	16445.99805
523.768	16365.04158
523.975	16407.54333
524.183	16182.90052
524.39	16190.99538
524.597	16427.78257
524.804	16421.71078
525.011	16324.56452
525.218	16522.90969
525.425	16561.36666
525.632	16462.18972
525.838	16480.40552
526.045	16723.29955
526.252	16968.2523
526.459	16749.61505
526.666	16777.95527
526.873	17478.53065
527.08	17300.31702
527.287	17478.53065
527.494	16816.41776
527.701	17219.31855
527.907	17170.72171
528.114	17269.94204
528.321	17332.71774
528.528	17288.16695
528.735	17604.10484
528.941	17138.32473
529.148	17207.16918
529.355	17310.44216
529.562	17276.01698
529.768	17993.06081
529.975	17178.82107
530.182	17581.82464
530.388	17450.17688
530.595	17905.93987
530.802	17668.92219
531.008	17867.44664
531.215	17553.4686
531.422	17683.10144
531.628	17875.55037
531.835	17713.48608
532.042	18254.46339
532.248	18100.45146
532.455	17731.71723
532.661	18384.17425
532.868	18203.79923
533.074	18619.31485
533.281	18609.17841
533.487	18323.37037
533.694	18562.55203
533.9	19012.68504
534.107	18276.75635
534.313	18388.22796
534.52	18355.79868
534.726	18380.12055
534.933	18511.8735
535.139	18815.98123
535.345	18467.27839
535.552	18609.17841
535.758	18858.56339
535.965	19000.51669
536.171	18749.06995
536.377	18909.25874
536.584	18830.17509
536.79	18891.00813
536.996	19402.14964
537.203	19245.93994
537.409	19195.22775
537.615	19282.4543
537.821	19270.2827
538.028	19357.5158
538.234	19150.60315
538.44	19310.85528
538.646	19039.05028
538.853	19822.21222
539.059	19398.09193
539.265	19615.2025
539.471	19481.2782
539.677	19556.35474
539.883	19781.61864
540.09	19781.61864
540.296	19917.61375
540.502	19862.80748
540.708	19440.69866
540.914	19672.02436
541.12	19538.09235
541.326	19903.40442
541.532	19698.40705
541.738	20157.1734
541.944	19862.80748
542.15	20220.11828
542.356	20307.4356
542.562	20408.97714
542.768	20071.89969
542.974	20226.20993
543.18	20025.20533
543.386	20514.59146
543.592	20748.20168
543.798	20685.22307
544.004	20486.15572
544.21	20703.50677
544.415	20551.15289
544.621	20992.02737
544.827	20740.07519
545.033	21030.63854
545.239	20721.79081
545.445	21378.20521
545.651	20774.61326
545.856	21042.83185
546.062	20750.23332
546.268	21026.57414
546.474	20882.29846
546.679	21077.38036
546.885	20742.1068
547.091	21055.02531
547.297	20421.16283
547.502	20853.85218
547.708	20654.75098
547.914	21237.94476
548.119	21274.53259
548.325	21073.31577
548.531	20819.31136
548.736	21237.94476
548.942	21205.42334
549.147	21140.38362
549.353	21083.47728
549.559	21298.92521
549.764	21044.86408
549.97	21298.92521
550.175	21146.48091
550.381	21614.04827
550.586	21073.31577
550.792	21524.58427
550.997	21685.21825
551.203	21750.29214
551.408	21801.13388
551.614	21831.64009
551.819	21843.84282
552.025	22161.1619
552.23	22006.55902
552.435	21837.74144
552.641	22305.61299
552.846	21738.09048
553.052	21980.11598
553.257	21967.91171
553.462	22207.95387
553.668	22327.9944
553.873	22230.33333
554.078	22435.83829
554.283	22317.82098
554.489	22602.71103
554.694	22423.62903
554.899	22242.5405
555.105	22743.14678
555.31	22220.16079
555.515	22623.063
555.72	22718.72197
555.925	22157.09312
556.131	22543.69232
556.336	22423.62903
556.541	22606.7814
556.746	22195.74708
556.951	22859.17139
557.156	22806.2465
557.361	22903.9558
557.567	23070.89388
557.772	22621.02779
557.977	22956.88494
558.182	22844.92215
558.387	22999.63706
558.592	23077.00179
558.797	22794.03339
559.002	22855.10016
559.207	23042.39066
559.412	22991.49369
559.617	22871.38516
559.822	23050.53437
560.027	22875.45644
560.232	23400.76325
560.437	23003.70877
560.642	23237.85421
560.847	23510.73825
561.051	23573.87612
561.256	23227.67308
561.461	23419.09178
561.666	23404.83624
561.871	23577.94963
562.076	23447.60334
562.281	23549.4353
562.485	23294.87006
562.69	23588.13346
562.895	23476.11551
563.1	23522.95825
563.305	23341.70637
563.509	23879.42276
563.714	23315.23346
563.919	23958.87567
564.123	23604.42775
564.328	23531.10498
564.533	24064.81961
564.737	23404.83624
564.942	23508.70159
565.147	23592.20701
565.351	23720.53016
565.556	23812.19679
565.761	23649.23805
565.965	24077.0444
566.17	23767.38125
566.374	23893.68321
566.579	23820.34523
566.784	24060.74471
566.988	24272.65448
567.193	24284.88094
567.397	24207.44833
567.602	24521.27773
567.806	24111.68185
568.011	24270.61674
568.215	24502.93535
568.42	24368.43096
568.624	24297.10749
568.828	24865.74413
569.033	24590.573
569.237	24557.9631
569.442	24429.56792
569.646	24193.18486
569.85	24331.74992
570.055	24912.62949
570.259	24659.87117
570.463	24875.93649
