Data from Scatter_Coeff_Baseline_USB4F045381__7__0007.txt Node

Date: Thu Feb 13 19:16:25 EST 2025
User: mmckonesweet
Spectrometer: USB4F04538
Trigger mode: 4
Integration Time (sec): 2.400000E-3
Scans to average: 1
Electric dark correction enabled: true
Nonlinearity correction enabled: true
Boxcar width: 0
XAxis mode: Wavelengths
Number of Pixels in Spectrum: 3648
>>>>>Begin Spectral Data<<<<<
345.52	54.09713
345.736	54.09713
345.952	54.09713
346.168	37.23403
346.384	33.01848
346.6	7.72721
346.816	-59.69913
347.032	28.80304
347.248	66.74543
347.464	3.51233
347.68	35.12624
347.896	-25.98912
348.112	-34.41722
348.328	5.61975
348.544	11.94218
348.76	-40.73804
348.975	1.40492
349.191	1.40492
349.407	28.80304
349.623	-19.66778
349.839	51.98916
350.055	16.15725
350.27	37.23403
350.486	33.01848
350.702	39.34183
350.918	-44.95179
351.133	60.42118
351.349	-19.66778
351.565	-19.66778
351.781	-72.33872
351.996	70.96171
352.212	11.94218
352.428	-23.88203
352.644	-32.31023
352.859	62.52924
353.075	28.80304
353.291	-32.31023
353.506	11.94218
353.722	49.88122
353.938	9.83468
354.153	20.37242
354.369	81.50281
354.584	28.80304
354.8	-84.97739
355.016	33.01848
355.231	41.44967
355.447	-25.98912
355.662	16.15725
355.878	45.6654
356.093	-74.44523
356.309	49.88122
356.524	26.69535
356.74	79.39455
356.955	-25.98912
357.171	-49.16544
357.386	54.09713
357.602	39.34183
357.817	3.51233
358.033	-23.88203
358.248	49.88122
358.464	16.15725
358.679	26.69535
358.895	9.83468
359.11	-9.13173
359.325	45.6654
359.541	83.6111
359.756	20.37242
359.972	-28.09618
360.187	9.83468
360.402	28.80304
360.618	75.17808
360.833	-59.69913
361.048	20.37242
361.264	39.34183
361.479	-0.70246
361.694	14.04971
361.909	39.34183
362.125	3.51233
362.34	30.91075
362.555	87.82774
362.77	43.55752
362.986	26.69535
363.201	3.51233
363.416	26.69535
363.631	-84.97739
363.847	54.09713
364.062	1.40492
364.277	58.31314
364.492	43.55752
364.707	58.31314
364.922	58.31314
365.138	28.80304
365.353	79.39455
365.568	-47.05863
365.783	16.15725
365.998	64.63732
366.213	16.15725
366.428	-4.91714
366.643	79.39455
366.858	-2.80981
367.073	68.85356
367.288	45.6654
367.503	-2.80981
367.718	54.09713
367.933	62.52924
368.148	-15.45344
368.363	11.94218
368.578	-21.77492
368.793	24.58768
369.008	-21.77492
369.223	123.67278
369.438	-59.69913
369.653	-42.84492
369.868	70.96171
370.083	33.01848
370.298	-11.23899
370.513	28.80304
370.728	5.61975
370.943	45.6654
371.157	-11.23899
371.372	54.09713
371.587	87.82774
371.802	-2.80981
372.017	-0.70246
372.232	5.61975
372.446	-13.34623
372.661	16.15725
372.876	54.09713
373.091	-47.05863
373.306	-53.37899
373.52	51.98916
373.735	-74.44523
373.95	-59.69913
374.165	24.58768
374.379	54.09713
374.594	-32.31023
374.809	-13.34623
375.023	11.94218
375.238	-30.20322
375.453	33.01848
375.667	115.23808
375.882	11.94218
376.097	-13.34623
376.311	58.31314
376.526	-4.91714
376.741	-4.91714
376.955	-4.91714
377.17	18.26482
377.384	20.37242
377.599	20.37242
377.813	7.72721
378.028	14.04971
378.242	43.55752
378.457	35.12624
378.672	35.12624
378.886	60.42118
379.101	73.06989
379.315	-23.88203
379.53	-55.48573
379.744	54.09713
379.958	11.94218
380.173	-17.56062
380.387	-30.20322
380.602	-7.02445
380.816	3.51233
381.031	62.52924
381.245	-11.23899
381.459	45.6654
381.674	7.72721
381.888	66.74543
382.103	70.96171
382.317	-4.91714
382.531	14.04971
382.746	92.04447
382.96	16.15725
383.174	-11.23899
383.388	94.15287
383.603	66.74543
383.817	20.37242
384.031	-68.12563
384.246	35.12624
384.46	3.51233
384.674	5.61975
384.888	-11.23899
385.103	30.91075
385.317	58.31314
385.531	-44.95179
385.745	3.51233
385.959	85.71941
386.174	73.06989
386.388	39.34183
386.602	24.58768
386.816	-9.13173
387.03	54.09713
387.244	-7.02445
387.458	-2.80981
387.672	87.82774
387.887	28.80304
388.101	3.51233
388.315	-55.48573
388.529	-13.34623
388.743	28.80304
388.957	64.63732
389.171	37.23403
389.385	-25.98912
389.599	-0.70246
389.813	62.52924
390.027	11.94218
390.241	-2.80981
390.455	26.69535
390.669	-61.80579
390.883	5.61975
391.097	20.37242
391.311	-13.34623
391.525	-30.20322
391.738	-34.41722
391.952	11.94218
392.166	28.80304
392.38	-9.13173
392.594	-63.91243
392.808	3.51233
393.022	-47.05863
393.236	-9.13173
393.449	49.88122
393.663	7.72721
393.877	16.15725
394.091	28.80304
394.305	64.63732
394.518	3.51233
394.732	37.23403
394.946	41.44967
395.16	-9.13173
395.373	45.6654
395.587	-13.34623
395.801	-61.80579
396.015	41.44967
396.228	28.80304
396.442	18.26482
396.656	-21.77492
396.869	-28.09618
397.083	7.72721
397.297	3.51233
397.51	89.9361
397.724	-4.91714
397.938	-13.34623
398.151	81.50281
398.365	22.48004
398.578	-87.08375
398.792	24.58768
399.005	11.94218
399.219	11.94218
399.433	30.91075
399.646	-34.41722
399.86	37.23403
400.073	-0.70246
400.287	14.04971
400.5	37.23403
400.714	41.44967
400.927	-11.23899
401.141	41.44967
401.354	-91.29638
401.567	30.91075
401.781	24.58768
401.994	-42.84492
402.208	11.94218
402.421	-0.70246
402.635	-4.91714
402.848	39.34183
403.061	28.80304
403.275	28.80304
403.488	26.69535
403.701	49.88122
403.915	87.82774
404.128	-40.73804
404.341	77.2863
404.555	16.15725
404.768	49.88122
404.981	24.58768
405.195	-40.73804
405.408	66.74543
405.621	16.15725
405.834	-38.63112
406.048	3.51233
406.261	-38.63112
406.474	9.83468
406.687	33.01848
406.9	37.23403
407.114	58.31314
407.327	-68.12563
407.54	54.09713
407.753	-42.84492
407.966	14.04971
408.179	70.96171
408.392	37.23403
408.605	58.31314
408.819	3.51233
409.032	33.01848
409.245	22.48004
409.458	5.61975
409.671	-9.13173
409.884	37.23403
410.097	-13.34623
410.31	18.26482
410.523	58.31314
410.736	11.94218
410.949	7.72721
411.162	18.26482
411.375	-51.27223
411.588	64.63732
411.801	16.15725
412.014	-4.91714
412.227	-17.56062
412.44	-32.31023
412.653	24.58768
412.865	-19.66778
413.078	47.77329
413.291	-2.80981
413.504	-21.77492
413.717	28.80304
413.93	18.26482
414.143	108.91229
414.356	37.23403
414.568	33.01848
414.781	96.26129
414.994	28.80304
415.207	5.61975
415.42	-13.34623
415.632	-4.91714
415.845	45.6654
416.058	-47.05863
416.271	-4.91714
416.483	115.23808
416.696	3.51233
416.909	49.88122
417.121	3.51233
417.334	79.39455
417.547	37.23403
417.759	-19.66778
417.972	92.04447
418.185	49.88122
418.397	-19.66778
418.61	-11.23899
418.823	7.72721
419.035	79.39455
419.248	83.6111
419.46	33.01848
419.673	22.48004
419.885	-44.95179
420.098	96.26129
420.311	-9.13173
420.523	-30.20322
420.736	-4.91714
420.948	28.80304
421.161	22.48004
421.373	-30.20322
421.586	-19.66778
421.798	20.37242
422.01	22.48004
422.223	30.91075
422.435	47.77329
422.648	-7.02445
422.86	26.69535
423.073	56.20513
423.285	-80.7646
423.497	64.63732
423.71	37.23403
423.922	22.48004
424.134	22.48004
424.347	-61.80579
424.559	81.50281
424.771	14.04971
424.984	132.10782
425.196	-13.34623
425.408	-21.77492
425.621	-44.95179
425.833	60.42118
426.045	70.96171
426.257	7.72721
426.47	3.51233
426.682	-17.56062
426.894	16.15725
427.106	-19.66778
427.318	-4.91714
427.531	58.31314
427.743	-4.91714
427.955	-0.70246
428.167	54.09713
428.379	7.72721
428.591	75.17808
428.804	-21.77492
429.016	33.01848
429.228	45.6654
429.44	33.01848
429.652	73.06989
429.864	22.48004
430.076	-21.77492
430.288	11.94218
430.5	-2.80981
430.712	-21.77492
430.924	28.80304
431.136	24.58768
431.348	28.80304
431.56	138.43433
431.772	-55.48573
431.984	85.71941
432.196	73.06989
432.408	3.51233
432.62	70.96171
432.832	56.20513
433.044	39.34183
433.256	14.04971
433.468	7.72721
433.679	56.20513
433.891	14.04971
434.103	28.80304
434.315	79.39455
434.527	20.37242
434.739	20.37242
434.95	11.94218
435.162	20.37242
435.374	7.72721
435.586	81.50281
435.798	-34.41722
436.009	16.15725
436.221	51.98916
436.433	66.74543
436.645	-72.33872
436.856	30.91075
437.068	-44.95179
437.28	7.72721
437.491	64.63732
437.703	64.63732
437.915	98.36974
438.126	-21.77492
438.338	33.01848
438.55	-0.70246
438.761	62.52924
438.973	92.04447
439.184	62.52924
439.396	35.12624
439.608	-15.45344
439.819	-19.66778
440.031	-34.41722
440.242	37.23403
440.454	16.15725
440.665	3.51233
440.877	-51.27223
441.088	7.72721
441.3	56.20513
441.511	73.06989
441.723	30.91075
441.934	92.04447
442.146	9.83468
442.357	9.83468
442.569	24.58768
442.78	-0.70246
442.991	60.42118
443.203	-2.80981
443.414	20.37242
443.626	-28.09618
443.837	41.44967
444.048	24.58768
444.26	70.96171
444.471	49.88122
444.682	16.15725
444.894	24.58768
445.105	41.44967
445.316	-11.23899
445.528	-9.13173
445.739	3.51233
445.95	3.51233
446.161	20.37242
446.373	-44.95179
446.584	56.20513
446.795	75.17808
447.006	-19.66778
447.217	-32.31023
447.429	3.51233
447.64	16.15725
447.851	20.37242
448.062	-9.13173
448.273	-25.98912
448.484	-4.91714
448.695	28.80304
448.907	56.20513
449.118	5.61975
449.329	28.80304
449.54	54.09713
449.751	20.37242
449.962	-72.33872
450.173	56.20513
450.384	-21.77492
450.595	-11.23899
450.806	14.04971
451.017	56.20513
451.228	-72.33872
451.439	75.17808
451.65	3.51233
451.861	64.63732
452.072	79.39455
452.283	-13.34623
452.494	-28.09618
452.705	54.09713
452.915	24.58768
453.126	22.48004
453.337	-23.88203
453.548	26.69535
453.759	33.01848
453.97	-38.63112
454.181	3.51233
454.391	77.2863
454.602	-9.13173
454.813	1.40492
455.024	5.61975
455.235	49.88122
455.445	75.17808
455.656	-55.48573
455.867	-9.13173
456.078	11.94218
456.288	20.37242
456.499	28.80304
456.71	-49.16544
456.921	28.80304
457.131	-4.91714
457.342	26.69535
457.553	-13.34623
457.763	-19.66778
457.974	54.09713
458.184	14.04971
458.395	79.39455
458.606	33.01848
458.816	68.85356
459.027	43.55752
459.237	-38.63112
459.448	-0.70246
459.659	-13.34623
459.869	22.48004
460.08	-38.63112
460.29	7.72721
460.501	20.37242
460.711	-21.77492
460.922	7.72721
461.132	58.31314
461.343	1.40492
461.553	3.51233
461.764	56.20513
461.974	-82.87101
462.184	5.61975
462.395	64.63732
462.605	-21.77492
462.816	113.12946
463.026	1.40492
463.236	28.80304
463.447	62.52924
463.657	-4.91714
463.867	-2.80981
464.078	-76.55171
464.288	-19.66778
464.498	54.09713
464.709	16.15725
464.919	1.40492
465.129	37.23403
465.339	18.26482
465.55	22.48004
465.76	-4.91714
465.97	96.26129
466.18	51.98916
466.391	-7.02445
466.601	45.6654
466.811	41.44967
467.021	16.15725
467.231	-36.52418
467.441	16.15725
467.651	51.98916
467.862	-2.80981
468.072	11.94218
468.282	-34.41722
468.492	64.63732
468.702	22.48004
468.912	3.51233
469.122	70.96171
469.332	-4.91714
469.542	35.12624
469.752	37.23403
469.962	98.36974
470.172	-38.63112
470.382	3.51233
470.592	-9.13173
470.802	14.04971
471.012	-30.20322
471.222	5.61975
471.432	5.61975
471.642	3.51233
471.852	-9.13173
472.062	28.80304
472.272	20.37242
472.482	3.51233
472.691	18.26482
472.901	-11.23899
473.111	3.51233
473.321	-13.34623
473.531	37.23403
473.741	45.6654
473.95	1.40492
474.16	-0.70246
474.37	121.56407
474.58	-49.16544
474.79	14.04971
474.999	33.01848
475.209	-17.56062
475.419	-17.56062
475.628	-9.13173
475.838	64.63732
476.048	45.6654
476.258	18.26482
476.467	-30.20322
476.677	58.31314
476.886	47.77329
477.096	28.80304
477.306	47.77329
477.515	58.31314
477.725	-25.98912
477.935	24.58768
478.144	-7.02445
478.354	30.91075
478.563	7.72721
478.773	-36.52418
478.982	33.01848
479.192	1.40492
479.401	-0.70246
479.611	16.15725
479.82	30.91075
480.03	37.23403
480.239	-0.70246
480.449	35.12624
480.658	30.91075
480.868	-30.20322
481.077	-34.41722
481.287	28.80304
481.496	43.55752
481.705	56.20513
481.915	54.09713
482.124	24.58768
482.333	-55.48573
482.543	33.01848
482.752	-28.09618
482.961	24.58768
483.171	3.51233
483.38	104.6952
483.589	54.09713
483.799	-2.80981
484.008	37.23403
484.217	79.39455
484.426	20.37242
484.636	-42.84492
484.845	-17.56062
485.054	7.72721
485.263	3.51233
485.472	7.72721
485.682	56.20513
485.891	20.37242
486.1	3.51233
486.309	28.80304
486.518	28.80304
486.727	92.04447
486.936	22.48004
487.146	33.01848
487.355	5.61975
487.564	56.20513
487.773	64.63732
487.982	-4.91714
488.191	39.34183
488.4	7.72721
488.609	37.23403
488.818	111.02086
489.027	14.04971
489.236	-82.87101
489.445	-25.98912
489.654	37.23403
489.863	47.77329
490.072	1.40492
490.281	58.31314
490.49	-13.34623
490.698	-2.80981
490.907	49.88122
491.116	28.80304
491.325	20.37242
491.534	22.48004
491.743	26.69535
491.952	18.26482
492.16	14.04971
492.369	-9.13173
492.578	14.04971
492.787	45.6654
492.996	-47.05863
493.204	-13.34623
493.413	33.01848
493.622	16.15725
493.831	3.51233
494.039	-30.20322
494.248	-25.98912
494.457	30.91075
494.665	28.80304
494.874	125.7815
495.083	30.91075
495.291	33.01848
495.5	-30.20322
495.709	64.63732
495.917	-23.88203
496.126	64.63732
496.335	-44.95179
496.543	87.82774
496.752	33.01848
496.96	24.58768
497.169	1.40492
497.377	14.04971
497.586	73.06989
497.794	58.31314
498.003	-13.34623
498.211	79.39455
498.42	1.40492
498.628	-19.66778
498.837	7.72721
499.045	14.04971
499.254	37.23403
499.462	1.40492
499.671	-19.66778
499.879	-13.34623
500.087	49.88122
500.296	-9.13173
500.504	49.88122
500.713	64.63732
500.921	-4.91714
501.129	66.74543
501.338	11.94218
501.546	75.17808
501.754	24.58768
501.962	92.04447
502.171	9.83468
502.379	14.04971
502.587	41.44967
502.795	75.17808
503.004	33.01848
503.212	28.80304
503.42	20.37242
503.628	20.37242
503.837	70.96171
504.045	70.96171
504.253	30.91075
504.461	-19.66778
504.669	60.42118
504.877	37.23403
505.085	3.51233
505.294	-55.48573
505.502	24.58768
505.71	-11.23899
505.918	-30.20322
506.126	-25.98912
506.334	-19.66778
506.542	45.6654
506.75	113.12946
506.958	22.48004
507.166	-28.09618
507.374	-4.91714
507.582	73.06989
507.79	-11.23899
507.998	81.50281
508.206	62.52924
508.414	-13.34623
508.622	51.98916
508.83	28.80304
509.037	54.09713
509.245	16.15725
509.453	16.15725
509.661	47.77329
509.869	37.23403
510.077	62.52924
510.285	62.52924
510.492	-15.45344
510.7	41.44967
510.908	73.06989
511.116	7.72721
511.324	-0.70246
511.531	16.15725
511.739	35.12624
511.947	-7.02445
512.155	3.51233
512.362	30.91075
512.57	79.39455
512.778	79.39455
512.985	41.44967
513.193	54.09713
513.401	111.02086
513.608	-53.37899
513.816	-11.23899
514.024	54.09713
514.231	-32.31023
514.439	28.80304
514.646	3.51233
514.854	-13.34623
515.061	28.80304
515.269	-0.70246
515.477	16.15725
515.684	62.52924
515.892	62.52924
516.099	-59.69913
516.307	43.55752
516.514	20.37242
516.722	62.52924
516.929	14.04971
517.136	-38.63112
517.344	9.83468
517.551	56.20513
517.759	-4.91714
517.966	-53.37899
518.173	3.51233
518.381	81.50281
518.588	22.48004
518.796	51.98916
519.003	11.94218
519.21	-66.01904
519.418	-13.34623
519.625	56.20513
519.832	-30.20322
520.039	1.40492
520.247	54.09713
520.454	37.23403
520.661	16.15725
520.868	-0.70246
521.076	28.80304
521.283	-0.70246
521.49	-9.13173
521.697	-11.23899
521.904	51.98916
522.112	68.85356
522.319	-44.95179
522.526	-61.80579
522.733	-15.45344
522.94	-13.34623
523.147	20.37242
523.354	45.6654
523.561	-2.80981
523.768	-4.91714
523.975	-87.08375
524.183	7.72721
524.39	24.58768
524.597	56.20513
524.804	33.01848
525.011	33.01848
525.218	26.69535
525.425	28.80304
525.632	37.23403
525.838	119.45538
526.045	-11.23899
526.252	3.51233
526.459	16.15725
526.666	125.7815
526.873	37.23403
527.08	-32.31023
527.287	20.37242
527.494	79.39455
527.701	28.80304
527.907	68.85356
528.114	49.88122
528.321	24.58768
528.528	-42.84492
528.735	66.74543
528.941	66.74543
529.148	24.58768
529.355	18.26482
529.562	87.82774
529.768	37.23403
529.975	-0.70246
530.182	-21.77492
530.388	28.80304
530.595	1.40492
530.802	49.88122
531.008	-25.98912
531.215	-36.52418
531.422	11.94218
531.628	54.09713
531.835	66.74543
532.042	49.88122
532.248	-11.23899
532.455	75.17808
532.661	56.20513
532.868	60.42118
533.074	30.91075
533.281	16.15725
533.487	7.72721
533.694	43.55752
533.9	22.48004
534.107	-0.70246
534.313	-34.41722
534.52	3.51233
534.726	16.15725
534.933	11.94218
535.139	-38.63112
535.345	-9.13173
535.552	-19.66778
535.758	14.04971
535.965	85.71941
536.171	35.12624
536.377	-47.05863
536.584	14.04971
536.79	-23.88203
536.996	79.39455
537.203	43.55752
537.409	22.48004
537.615	62.52924
537.821	24.58768
538.028	5.61975
538.234	-9.13173
538.44	-25.98912
538.646	3.51233
538.853	41.44967
539.059	20.37242
539.265	7.72721
539.471	56.20513
539.677	58.31314
539.883	62.52924
540.09	7.72721
540.296	47.77329
540.502	-0.70246
540.708	22.48004
540.914	24.58768
541.12	16.15725
541.326	7.72721
541.532	7.72721
541.738	-32.31023
541.944	62.52924
542.15	62.52924
542.356	30.91075
542.562	60.42118
542.768	22.48004
542.974	-2.80981
543.18	92.04447
543.386	22.48004
543.592	35.12624
543.798	30.91075
544.004	7.72721
544.21	-72.33872
544.415	37.23403
544.621	-47.05863
544.827	58.31314
545.033	18.26482
545.239	81.50281
545.445	-32.31023
545.651	20.37242
545.856	-28.09618
546.062	113.12946
546.268	20.37242
546.474	-9.13173
546.679	62.52924
546.885	3.51233
547.091	54.09713
547.297	5.61975
547.502	-19.66778
547.708	33.01848
547.914	62.52924
548.119	56.20513
548.325	83.6111
548.531	3.51233
548.736	-4.91714
548.942	33.01848
549.147	43.55752
549.353	45.6654
549.559	30.91075
549.764	1.40492
549.97	-2.80981
550.175	7.72721
550.381	11.94218
550.586	18.26482
550.792	-78.65817
550.997	51.98916
551.203	-63.91243
551.408	56.20513
551.614	11.94218
551.819	58.31314
552.025	70.96171
552.23	-11.23899
552.435	68.85356
552.641	22.48004
552.846	-9.13173
553.052	30.91075
553.257	22.48004
553.462	79.39455
553.668	-9.13173
553.873	28.80304
554.078	28.80304
554.283	56.20513
554.489	16.15725
554.694	3.51233
554.899	-9.13173
555.105	-2.80981
555.31	3.51233
555.515	-0.70246
555.72	-34.41722
555.925	-0.70246
556.131	-30.20322
556.336	45.6654
556.541	-9.13173
556.746	-38.63112
556.951	14.04971
557.156	7.72721
557.361	-44.95179
557.567	62.52924
557.772	43.55752
557.977	7.72721
558.182	56.20513
558.387	-2.80981
558.592	37.23403
558.797	7.72721
559.002	28.80304
559.207	58.31314
559.412	26.69535
559.617	20.37242
559.822	30.91075
560.027	5.61975
560.232	-28.09618
560.437	-59.69913
560.642	56.20513
560.847	79.39455
561.051	3.51233
561.256	64.63732
561.461	-38.63112
561.666	39.34183
561.871	5.61975
562.076	-21.77492
562.281	-57.59244
562.485	49.88122
562.69	-55.48573
562.895	-66.01904
563.1	45.6654
563.305	28.80304
563.509	9.83468
563.714	-36.52418
563.919	41.44967
564.123	18.26482
564.328	16.15725
564.533	45.6654
564.737	-9.13173
564.942	56.20513
565.147	-40.73804
565.351	35.12624
565.556	-25.98912
565.761	22.48004
565.965	41.44967
566.17	33.01848
566.374	20.37242
566.579	87.82774
566.784	75.17808
566.988	-11.23899
567.193	62.52924
567.397	-34.41722
567.602	-47.05863
567.806	3.51233
568.011	-2.80981
568.215	3.51233
568.42	5.61975
568.624	64.63732
568.828	22.48004
569.033	60.42118
569.237	106.80373
569.442	-13.34623
569.646	28.80304
569.85	-7.02445
570.055	-23.88203
570.259	16.15725
570.463	64.63732
570.668	-4.91714
570.872	33.01848
571.076	49.88122
571.281	66.74543
571.485	3.51233
571.689	-89.19007
571.893	-36.52418
572.098	-51.27223
572.302	37.23403
572.506	9.83468
572.71	70.96171
572.914	-19.66778
573.119	49.88122
573.323	83.6111
573.527	54.09713
573.731	-21.77492
573.935	-80.7646
574.139	30.91075
574.343	1.40492
574.547	16.15725
574.751	49.88122
574.955	1.40492
575.159	28.80304
575.364	24.58768
575.568	83.6111
575.772	-7.02445
575.976	-21.77492
576.18	-42.84492
576.383	11.94218
576.587	3.51233
576.791	-9.13173
576.995	68.85356
577.199	20.37242
577.403	54.09713
577.607	-7.02445
577.811	11.94218
578.015	-23.88203
578.219	33.01848
578.422	-21.77492
578.626	37.23403
578.83	-32.31023
579.034	41.44967
579.238	-13.34623
579.442	51.98916
579.645	-7.02445
579.849	-30.20322
580.053	-34.41722
580.257	60.42118
580.46	26.69535
580.664	37.23403
580.868	37.23403
581.071	79.39455
581.275	33.01848
581.479	5.61975
581.682	3.51233
581.886	47.77329
582.09	-70.23219
582.293	14.04971
582.497	37.23403
582.7	33.01848
582.904	49.88122
583.107	37.23403
583.311	5.61975
583.515	41.44967
583.718	45.6654
583.922	62.52924
584.125	33.01848
584.329	11.94218
584.532	-49.16544
584.735	-2.80981
584.939	47.77329
585.142	51.98916
585.346	47.77329
585.549	39.34183
585.753	-13.34623
585.956	62.52924
586.159	-4.91714
586.363	-30.20322
586.566	58.31314
586.769	-21.77492
586.973	68.85356
587.176	54.09713
587.379	54.09713
587.582	75.17808
