Data from mixed_try1_USB4F045381__26__00048.txt Node

Date: Thu Apr 03 19:34:29 EDT 2025
User: mmckonesweet
Spectrometer: USB4F04538
Trigger mode: 4
Integration Time (sec): 2.700000E-3
Scans to average: 1
Electric dark correction enabled: true
Nonlinearity correction enabled: true
Boxcar width: 0
XAxis mode: Wavelengths
Number of Pixels in Spectrum: 3648
>>>>>Begin Spectral Data<<<<<
345.52	22.48004
345.736	22.48004
345.952	22.48004
346.168	-19.66778
346.384	-49.16544
346.6	77.2863
346.816	-4.91714
347.032	-36.52418
347.248	-95.5089
347.464	51.98916
347.68	-15.45344
347.896	-42.84492
348.112	1.40492
348.328	35.12624
348.544	28.80304
348.76	-4.91714
348.975	5.61975
349.191	43.55752
349.407	70.96171
349.623	43.55752
349.839	35.12624
350.055	-51.27223
350.27	28.80304
350.486	-7.02445
350.702	47.77329
350.918	9.83468
351.133	-44.95179
351.349	-44.95179
351.565	39.34183
351.781	68.85356
351.996	9.83468
352.212	-32.31023
352.428	18.26482
352.644	-49.16544
352.859	5.61975
353.075	3.51233
353.291	-78.65817
353.506	-32.31023
353.722	3.51233
353.938	-23.88203
354.153	-2.80981
354.369	-15.45344
354.584	-44.95179
354.8	18.26482
355.016	-55.48573
355.231	-13.34623
355.447	1.40492
355.662	26.69535
355.878	3.51233
356.093	-139.73407
356.309	-4.91714
356.524	-78.65817
356.74	24.58768
356.955	30.91075
357.171	-36.52418
357.386	-11.23899
357.602	18.26482
357.817	-28.09618
358.033	26.69535
358.248	35.12624
358.464	-7.02445
358.679	43.55752
358.895	-21.77492
359.11	-78.65817
359.325	-49.16544
359.541	49.88122
359.756	-32.31023
359.972	-7.02445
360.187	39.34183
360.402	-23.88203
360.618	-70.23219
360.833	-99.72133
361.048	-23.88203
361.264	-53.37899
361.479	-30.20322
361.694	-53.37899
361.909	-9.13173
362.125	3.51233
362.34	-4.91714
362.555	28.80304
362.77	-19.66778
362.986	-40.73804
363.201	-49.16544
363.416	-4.91714
363.631	5.61975
363.847	79.39455
364.062	-23.88203
364.277	-74.44523
364.492	14.04971
364.707	-47.05863
364.922	-44.95179
365.138	-101.8275
365.353	11.94218
365.568	9.83468
365.783	14.04971
365.998	11.94218
366.213	77.2863
366.428	20.37242
366.643	58.31314
366.858	1.40492
367.073	30.91075
367.288	-44.95179
367.503	-7.02445
367.718	-11.23899
367.933	-28.09618
368.148	-11.23899
368.363	39.34183
368.578	20.37242
368.793	77.2863
369.008	22.48004
369.223	26.69535
369.438	-42.84492
369.653	-11.23899
369.868	26.69535
370.083	45.6654
370.298	-32.31023
370.513	-15.45344
370.728	-49.16544
370.943	26.69535
371.157	-11.23899
371.372	-7.02445
371.587	-34.41722
371.802	-28.09618
372.017	43.55752
372.232	7.72721
372.446	1.40492
372.661	1.40492
372.876	-7.02445
373.091	-4.91714
373.306	-9.13173
373.52	30.91075
373.735	-32.31023
373.95	39.34183
374.165	-7.02445
374.379	45.6654
374.594	-89.19007
374.809	-11.23899
375.023	-49.16544
375.238	14.04971
375.453	121.56407
375.667	-32.31023
375.882	30.91075
376.097	-19.66778
376.311	5.61975
376.526	-82.87101
376.741	33.01848
376.955	9.83468
377.17	-36.52418
377.384	9.83468
377.599	-21.77492
377.813	-40.73804
378.028	-44.95179
378.242	43.55752
378.457	62.52924
378.672	-7.02445
378.886	-32.31023
379.101	24.58768
379.315	-23.88203
379.53	18.26482
379.744	-4.91714
379.958	-19.66778
380.173	1.40492
380.387	62.52924
380.602	-25.98912
380.816	-32.31023
381.031	-40.73804
381.245	-15.45344
381.459	20.37242
381.674	1.40492
381.888	51.98916
382.103	43.55752
382.317	-61.80579
382.531	30.91075
382.746	18.26482
382.96	26.69535
383.174	35.12624
383.388	51.98916
383.603	-95.5089
383.817	49.88122
384.031	-7.02445
384.246	-15.45344
384.46	-44.95179
384.674	-28.09618
384.888	60.42118
385.103	22.48004
385.317	-2.80981
385.531	-61.80579
385.745	5.61975
385.959	11.94218
386.174	20.37242
386.388	-57.59244
386.602	-19.66778
386.816	-55.48573
387.03	-13.34623
387.244	14.04971
387.458	18.26482
387.672	68.85356
387.887	-32.31023
388.101	-2.80981
388.315	-23.88203
388.529	14.04971
388.743	18.26482
388.957	-32.31023
389.171	54.09713
389.385	-40.73804
389.599	35.12624
389.813	106.80373
390.027	-23.88203
390.241	49.88122
390.455	-11.23899
390.669	-7.02445
390.883	14.04971
391.097	33.01848
391.311	9.83468
391.525	7.72721
391.738	-89.19007
391.952	-25.98912
392.166	-7.02445
392.38	-53.37899
392.594	-11.23899
392.808	54.09713
393.022	-7.02445
393.236	54.09713
393.449	-82.87101
393.663	39.34183
393.877	-11.23899
394.091	-72.33872
394.305	-23.88203
394.518	35.12624
394.732	-66.01904
394.946	47.77329
395.16	51.98916
395.373	-9.13173
395.587	-4.91714
395.801	-15.45344
396.015	22.48004
396.228	-4.91714
396.442	-32.31023
396.656	-63.91243
396.869	9.83468
397.083	22.48004
397.297	54.09713
397.51	-15.45344
397.724	-66.01904
397.938	-32.31023
398.151	-0.70246
398.365	43.55752
398.578	18.26482
398.792	-23.88203
399.005	7.72721
399.219	-15.45344
399.433	77.2863
399.646	-19.66778
399.86	11.94218
400.073	30.91075
400.287	47.77329
400.5	-7.02445
400.714	35.12624
400.927	51.98916
401.141	-44.95179
401.354	-97.61513
401.567	-49.16544
401.781	-2.80981
401.994	37.23403
402.208	16.15725
402.421	87.82774
402.635	18.26482
402.848	26.69535
403.061	54.09713
403.275	-47.05863
403.488	18.26482
403.701	18.26482
403.915	18.26482
404.128	68.85356
404.341	-30.20322
404.555	-32.31023
404.768	111.02086
404.981	-0.70246
405.195	-7.02445
405.408	45.6654
405.621	-38.63112
405.834	-15.45344
406.048	11.94218
406.261	-15.45344
406.474	-15.45344
406.687	-11.23899
406.9	-9.13173
407.114	3.51233
407.327	39.34183
407.54	1.40492
407.753	51.98916
407.966	-57.59244
408.179	60.42118
408.392	1.40492
408.605	-25.98912
408.819	41.44967
409.032	9.83468
409.245	18.26482
409.458	30.91075
409.671	11.94218
409.884	-38.63112
410.097	-15.45344
410.31	37.23403
410.523	11.94218
410.736	5.61975
410.949	-15.45344
411.162	18.26482
411.375	-7.02445
411.588	1.40492
411.801	11.94218
412.014	24.58768
412.227	-23.88203
412.44	-36.52418
412.653	3.51233
412.865	-23.88203
413.078	56.20513
413.291	-38.63112
413.504	-32.31023
413.717	37.23403
413.93	-15.45344
414.143	89.9361
414.356	37.23403
414.568	20.37242
414.781	22.48004
414.994	30.91075
415.207	-7.02445
415.42	102.58669
415.632	-7.02445
415.845	-78.65817
416.058	-23.88203
416.271	62.52924
416.483	-21.77492
416.696	62.52924
416.909	18.26482
417.121	64.63732
417.334	11.94218
417.547	60.42118
417.759	5.61975
417.972	22.48004
418.185	9.83468
418.397	-23.88203
418.61	-78.65817
418.823	26.69535
419.035	-2.80981
419.248	45.6654
419.46	20.37242
419.673	-13.34623
419.885	60.42118
420.098	28.80304
420.311	20.37242
420.523	64.63732
420.736	-15.45344
420.948	18.26482
421.161	87.82774
421.373	24.58768
421.586	-30.20322
421.798	125.7815
422.01	1.40492
422.223	51.98916
422.435	33.01848
422.648	3.51233
422.86	-42.84492
423.073	56.20513
423.285	9.83468
423.497	-28.09618
423.71	79.39455
423.922	-19.66778
424.134	56.20513
424.347	-36.52418
424.559	26.69535
424.771	-11.23899
424.984	-7.02445
425.196	-49.16544
425.408	-47.05863
425.621	70.96171
425.833	1.40492
426.045	28.80304
426.257	-9.13173
426.47	7.72721
426.682	-23.88203
426.894	-51.27223
427.106	47.77329
427.318	22.48004
427.531	68.85356
427.743	-63.91243
427.955	-38.63112
428.167	35.12624
428.379	20.37242
428.591	30.91075
428.804	75.17808
429.016	1.40492
429.228	9.83468
429.44	9.83468
429.652	1.40492
429.864	18.26482
430.076	70.96171
430.288	-38.63112
430.5	11.94218
430.712	5.61975
430.924	5.61975
431.136	26.69535
431.348	1.40492
431.56	-47.05863
431.772	14.04971
431.984	-23.88203
432.196	148.97893
432.408	51.98916
432.62	11.94218
432.832	56.20513
433.044	24.58768
433.256	-53.37899
433.468	-40.73804
433.679	-7.02445
433.891	3.51233
434.103	28.80304
434.315	45.6654
434.527	87.82774
434.739	26.69535
434.95	-13.34623
435.162	92.04447
435.374	43.55752
435.586	37.23403
435.798	49.88122
436.009	18.26482
436.221	28.80304
436.433	14.04971
436.645	39.34183
436.856	-36.52418
437.068	26.69535
437.28	-2.80981
437.491	33.01848
437.703	54.09713
437.915	62.52924
438.126	30.91075
438.338	28.80304
438.55	-7.02445
438.761	-2.80981
438.973	-23.88203
439.184	18.26482
439.396	9.83468
439.608	30.91075
439.819	-7.02445
440.031	49.88122
440.242	18.26482
440.454	62.52924
440.665	7.72721
440.877	62.52924
441.088	45.6654
441.3	51.98916
441.511	51.98916
441.723	43.55752
441.934	28.80304
442.146	1.40492
442.357	77.2863
442.569	30.91075
442.78	-11.23899
442.991	62.52924
443.203	43.55752
443.414	-17.56062
443.626	77.2863
443.837	1.40492
444.048	56.20513
444.26	54.09713
444.471	33.01848
444.682	66.74543
444.894	41.44967
445.105	68.85356
445.316	54.09713
445.528	54.09713
445.739	20.37242
445.95	14.04971
446.161	28.80304
446.373	35.12624
446.584	85.71941
446.795	81.50281
447.006	62.52924
447.217	24.58768
447.429	77.2863
447.64	51.98916
447.851	26.69535
448.062	22.48004
448.273	102.58669
448.484	-15.45344
448.695	111.02086
448.907	26.69535
449.118	1.40492
449.329	62.52924
449.54	22.48004
449.751	22.48004
449.962	1.40492
450.173	18.26482
450.384	56.20513
450.595	-25.98912
450.806	79.39455
451.017	18.26482
451.228	-40.73804
451.439	5.61975
451.65	102.58669
451.861	35.12624
452.072	3.51233
452.283	-57.59244
452.494	39.34183
452.705	85.71941
452.915	1.40492
453.126	18.26482
453.337	43.55752
453.548	51.98916
453.759	127.89025
453.97	9.83468
454.181	51.98916
454.391	20.37242
454.602	33.01848
454.813	18.26482
455.024	60.42118
455.235	49.88122
455.445	5.61975
455.656	87.82774
455.867	26.69535
456.078	68.85356
456.288	-70.23219
456.499	41.44967
456.71	77.2863
456.921	77.2863
457.131	33.01848
457.342	51.98916
457.553	94.15287
457.763	51.98916
457.974	54.09713
458.184	153.19692
458.395	9.83468
458.606	47.77329
458.816	94.15287
459.027	14.04971
459.237	35.12624
459.448	45.6654
459.659	43.55752
459.869	111.02086
460.08	102.58669
460.29	56.20513
460.501	26.69535
460.711	45.6654
460.922	94.15287
461.132	182.72519
461.343	-11.23899
461.553	60.42118
461.764	70.96171
461.974	77.2863
462.184	102.58669
462.395	70.96171
462.605	39.34183
462.816	104.6952
463.026	45.6654
463.236	60.42118
463.447	68.85356
463.657	163.74226
463.867	98.36974
464.078	64.63732
464.288	102.58669
464.498	178.50662
464.709	56.20513
464.919	127.89025
465.129	60.42118
465.339	106.80373
465.55	51.98916
465.76	94.15287
465.97	148.97893
466.18	70.96171
466.391	138.43433
466.601	77.2863
466.811	136.32547
467.021	186.94385
467.231	170.06972
467.441	104.6952
467.651	229.13482
467.862	191.16258
468.072	203.81928
468.282	165.85139
468.492	208.03833
468.702	115.23808
468.912	231.24458
469.122	246.01343
469.332	161.63315
469.542	195.3814
469.752	260.78321
469.962	220.69599
470.172	216.47669
470.382	265.00332
470.592	214.36707
470.802	197.49084
471.012	201.70978
471.222	208.03833
471.432	208.03833
471.642	273.44377
471.852	241.79366
472.062	239.6838
472.272	180.61589
472.482	275.55393
472.691	338.86722
472.901	195.3814
473.111	296.65654
473.321	368.41887
473.531	343.08867
473.741	338.86722
473.95	349.42099
474.16	256.56318
474.37	345.19943
474.58	444.42385
474.79	366.30793
474.999	359.9752
475.209	423.30926
475.419	457.09336
475.628	509.88883
475.838	381.08489
476.048	535.23389
476.258	440.20081
476.467	520.44902
476.677	541.57047
476.886	533.12172
477.096	702.13611
477.306	670.43995
477.515	541.57047
477.725	617.61889
477.935	617.61889
478.144	653.53639
478.354	702.13611
478.563	757.08198
478.773	733.83477
478.982	773.98982
479.192	795.1255
479.401	858.53818
479.611	862.76597
479.82	890.24746
480.03	905.04575
480.239	970.58551
480.449	843.74116
480.658	921.95856
480.868	1040.36082
481.077	1186.2736
481.287	955.7856
481.496	1112.25708
481.705	1203.19234
481.915	1201.07748
482.124	1196.84779
482.333	1239.14535
482.543	1050.93341
482.752	1289.90392
482.961	1304.70876
483.171	1448.53074
483.38	1361.81396
483.589	1404.1147
483.799	1355.46888
484.008	1592.35299
484.217	1313.16871
484.426	1550.05281
484.636	1537.36265
484.845	1657.91679
485.054	1784.80677
485.263	1636.76741
485.472	1759.42978
485.682	1975.11259
485.891	1786.92149
486.1	1863.0486
486.309	1844.01738
486.518	2072.36168
486.727	1898.99534
486.936	2072.36168
487.146	1975.11259
487.355	1966.6555
487.564	2040.6516
487.773	2120.98063
487.982	2089.27307
488.191	2178.04981
488.4	2241.4529
488.609	2211.86576
488.818	2175.93624
489.027	2321.75188
489.236	2469.63369
489.445	2480.19468
489.654	2418.93711
489.863	2385.136
490.072	2537.21919
490.281	2579.45414
490.49	2461.18469
490.698	2655.46488
490.907	2549.89017
491.116	2790.55429
491.325	2720.90553
491.534	2733.57002
491.743	2820.0978
491.952	2976.21012
492.16	2912.9309
492.369	2961.44616
492.578	2982.5373
492.787	3071.1035
492.996	2997.30021
493.204	3079.53695
493.413	3096.4031
493.622	3288.18261
493.831	3060.56133
494.039	3374.5433
494.248	3136.45614
494.457	3340.84503
494.665	3382.96717
494.874	3473.50587
495.083	3490.34662
495.291	3570.32423
495.5	3340.84503
495.709	3448.24258
495.917	3507.18621
496.126	3841.62382
496.335	3610.30301
496.543	3789.07153
496.752	3696.54984
496.96	3858.43793
497.169	3637.65302
497.377	3759.63689
497.586	3711.27171
497.794	4261.58485
498.003	3883.65672
498.211	4026.50833
498.42	4058.007
498.628	4221.72442
498.837	3919.37841
499.045	4099.99797
499.254	3898.36635
499.462	4213.33178
499.671	4120.99033
499.879	4349.66989
500.087	4387.40896
500.296	4314.021
500.504	4110.49441
500.713	4265.78023
500.921	4305.63212
501.129	4358.05696
501.338	4293.04815
501.546	4684.87838
501.754	4418.85279
501.962	4469.1527
502.171	4416.75669
502.379	4603.22364
502.587	4563.43081
502.795	4674.41173
503.004	4395.79446
503.212	4555.05235
503.42	4799.97426
503.628	4753.94412
503.837	4682.78509
504.045	4871.09009
504.253	4873.18133
504.461	4992.34425
504.669	4776.96056
504.877	5059.20994
505.085	5171.992
505.294	5128.14036
505.502	4825.07697
505.71	5178.25568
505.918	5027.86959
506.126	5209.57095
506.334	5075.92266
506.542	5057.12075
506.75	5288.87945
506.958	5242.96812
507.166	5144.84695
507.374	5522.43397
507.582	5247.14234
507.79	5505.76128
507.998	5311.83088
508.206	5534.93749
508.414	5182.43135
508.622	5324.34864
508.83	5245.05524
509.037	5609.94084
509.245	5328.52104
509.453	5643.26585
509.661	5701.57009
509.869	5676.58482
510.077	5482.83388
510.285	5774.42436
510.492	5851.41031
510.7	5776.50549
510.908	5545.35645
511.116	5645.34846
511.324	5780.66767
511.531	5847.24973
511.739	5653.67868
511.947	6021.9127
512.155	5897.17042
512.362	6100.87229
512.57	5851.41031
512.778	6009.44229
512.985	6011.52075
513.193	6036.46044
513.401	6125.79983
513.608	6167.33823
513.816	6003.20677
514.024	6046.85098
514.231	6308.49858
514.439	6248.31109
514.646	6107.10449
514.854	6202.63848
515.061	6264.9165
515.269	6167.33823
515.477	6383.18675
515.684	6549.05241
515.892	6437.1094
516.099	6582.20774
516.307	6335.4728
516.514	6478.57767
516.722	6347.92111
516.929	6712.69944
517.136	6522.10935
517.344	6723.05201
517.551	6468.21147
517.759	6708.55825
517.966	6627.78665
518.173	6557.3418
518.381	6528.32733
518.588	6826.54631
518.796	6797.57366
519.003	6704.41696
519.21	6694.06335
519.418	6934.11998
519.625	6764.45659
519.832	7111.89635
520.039	6865.85919
520.247	6888.61553
520.454	7027.16322
520.661	7310.14961
520.868	7136.68918
521.076	7392.69527
521.283	6896.88989
521.49	7151.15019
521.697	7082.96732
521.904	7324.59763
522.112	7107.7639
522.319	7376.18893
522.526	7045.7664
522.733	7487.57973
522.94	7407.13717
523.147	7334.91698
523.354	7396.82164
523.561	7499.95259
523.768	7369.9987
523.975	7436.01778
524.183	7376.18893
524.39	7837.84714
524.597	7697.81354
524.804	7683.3928
525.011	7693.69343
525.218	7769.90174
525.425	7685.45297
525.632	7537.06652
525.838	7771.96103
526.045	7986.01337
526.252	7841.96431
526.459	7944.86677
526.666	8006.5836
526.873	8150.51855
527.08	8092.95642
527.287	8220.39438
527.494	7930.46353
527.701	8265.59594
527.907	7922.23265
528.114	8314.89589
528.321	8166.96199
528.528	8140.24075
528.735	8203.95507
528.941	8242.99636
529.148	8129.96245
529.355	8423.72684
529.562	8138.18513
529.768	8557.12508
529.975	8160.79585
530.182	8466.83354
530.388	8282.03051
530.595	8550.97
530.802	8516.08802
531.008	8764.24792
531.215	8606.35958
531.422	8538.65934
531.628	8741.69914
531.835	8702.74601
532.042	8872.86125
532.248	8944.55936
532.455	8751.94886
532.661	9048.99496
532.868	8833.93024
533.074	9161.5709
533.281	8747.84902
533.487	9364.0783
533.694	8846.22494
533.9	9157.47814
534.107	9094.03159
534.313	9122.68691
534.52	9161.5709
534.726	9167.70991
534.933	9245.45752
535.139	9392.70258
535.345	9315.00061
535.552	9245.45752
535.758	9298.63927
535.965	9537.81966
536.171	9368.16768
536.377	9355.89935
536.584	9498.99344
536.79	9756.36686
536.996	9562.33852
537.203	9394.74705
537.409	9214.77059
537.615	9656.30653
537.821	9445.85347
538.028	9658.34895
538.234	9456.07354
538.44	9619.54038
538.646	9821.69267
538.853	9766.57503
539.059	9823.73385
539.265	9921.69322
539.471	9884.96244
539.677	9813.52778
539.883	9995.14058
540.09	10205.17967
540.296	9866.59527
540.502	10274.48069
540.708	9870.67697
540.914	10062.45093
541.12	10048.17427
541.326	10245.94688
541.532	10231.67898
541.738	10319.3142
541.944	10164.40698
542.15	10490.43798
542.356	10319.3142
542.562	10476.18116
542.768	10264.29035
542.974	10441.55484
543.18	10408.96195
543.386	10791.72495
543.592	10541.35009
543.798	10643.15079
544.004	10445.62872
544.21	10987.01496
544.415	10547.45901
544.621	10718.46351
544.827	10425.25881
545.033	10728.63964
545.239	10592.25433
545.445	11076.48819
545.651	10877.17735
545.856	11007.35166
546.062	10897.52015
546.268	11003.28441
546.474	10775.44596
546.679	10832.41913
546.885	10818.1767
547.091	11005.31804
547.297	10744.92081
547.502	10954.47392
547.708	11139.51349
547.914	10938.20232
548.119	11003.28441
548.325	11302.11258
548.531	11066.32185
548.736	11263.50129
548.942	11052.08851
549.147	11141.54639
549.353	11291.95207
549.559	11474.80314
549.764	11255.37213
549.97	11377.29253
550.175	11245.21045
550.381	11653.51576
550.586	11586.50695
550.792	11293.98419
550.997	11300.0805
551.203	11631.18059
551.408	11474.80314
551.614	11702.24327
551.819	11712.39419
552.025	11913.33791
552.23	11763.14548
552.435	12059.42791
552.641	12177.08216
552.846	11901.16185
553.052	11673.81952
553.257	12067.54282
553.462	11925.51367
553.668	11860.57285
553.873	11972.1847
554.078	12035.08244
554.283	11982.33002
554.489	12183.16703
554.694	12244.01217
554.899	12244.01217
555.105	12116.2297
555.31	12195.33659
555.515	12051.31288
555.72	12308.9065
555.925	11888.9855
556.131	12531.92724
556.336	12075.65761
556.541	12535.98143
556.746	12424.48188
556.951	12444.756
557.156	12215.61859
557.361	12304.85082
557.567	12718.39429
557.772	12596.79122
557.977	12501.52003
558.182	12807.5565
558.387	12645.43504
558.592	12564.36003
558.797	12643.40828
559.002	12598.81811
559.207	12497.46562
559.412	12898.73398
559.617	12736.63292
559.822	12931.15003
560.027	12685.96891
560.232	13079.03161
560.437	12791.34601
560.642	12825.79288
560.847	12819.71414
561.051	13014.21009
561.256	12785.26698
561.461	12983.82326
561.666	13133.72092
561.871	13350.42025
562.076	13060.80106
562.281	13204.60944
562.485	13000.02971
562.69	13002.05549
562.895	13072.9548
563.1	13480.01202
563.305	13034.46736
563.509	13267.39182
563.714	13334.22014
563.919	13384.84464
564.123	13190.43218
564.328	13320.04481
564.533	13156.00078
564.737	13058.77542
564.942	13040.54444
565.147	13455.71477
565.351	13139.7973
565.556	13354.47024
565.761	13552.90055
565.965	13874.77286
566.17	13190.43218
566.374	13346.37025
566.579	13530.62955
566.784	13583.26939
566.988	13607.5639
567.193	13567.07277
567.397	13577.19569
567.602	13593.39216
567.806	13332.1951
568.011	13652.10256
568.215	13516.45688
568.42	13836.3142
568.624	13727.00489
568.828	13915.25459
569.033	13639.95581
569.237	14089.31432
569.442	13963.83125
569.646	13761.41803
569.85	13850.4833
570.055	14075.14733
570.259	14004.31068
570.463	14370.60941
570.668	13775.58789
570.872	14018.47824
571.076	13921.32675
571.281	14342.27915
571.485	14241.09687
571.689	14040.74132
571.893	14093.36201
572.098	14196.57519
572.302	14483.92741
572.506	14483.92741
572.71	14263.35736
572.914	14546.65513
573.119	14451.55132
573.323	14530.46745
573.527	14206.69383
573.731	14769.22862
573.935	14293.71221
574.139	14862.30172
574.343	14366.56225
574.547	14532.49091
