Data from mixed_try1_USB4F045381__23__00045.txt Node

Date: Thu Apr 03 19:34:07 EDT 2025
User: mmckonesweet
Spectrometer: USB4F04538
Trigger mode: 4
Integration Time (sec): 2.700000E-3
Scans to average: 1
Electric dark correction enabled: true
Nonlinearity correction enabled: true
Boxcar width: 0
XAxis mode: Wavelengths
Number of Pixels in Spectrum: 3648
>>>>>Begin Spectral Data<<<<<
345.52	-12.46822
345.736	-12.46822
345.952	-12.46822
346.168	21.25059
346.384	46.54368
346.6	-54.60793
346.816	-8.2537
347.032	6.49786
347.248	4.39042
347.464	42.32793
347.68	40.22009
347.896	0.17561
348.112	-41.96706
348.328	-6.14641
348.544	-10.36097
348.76	38.11228
348.975	-10.36097
349.191	-54.60793
349.407	12.82031
349.623	29.68125
349.839	-1.93175
350.055	17.0354
350.27	12.82031
350.486	-77.78048
350.702	23.35822
350.918	80.27299
351.133	27.57355
351.349	-25.11117
351.565	54.97546
351.781	-4.03909
351.996	-4.03909
352.212	67.62381
352.428	6.49786
352.644	46.54368
352.859	71.84011
353.075	-96.73754
353.291	33.89672
353.506	23.35822
353.722	-35.64629
353.938	-1.93175
354.153	-44.07393
354.369	21.25059
354.584	48.65159
354.8	4.39042
355.016	86.59788
355.231	31.78897
355.447	-44.07393
355.662	-12.46822
355.878	40.22009
356.093	6.49786
356.309	67.62381
356.524	19.14299
356.74	-96.73754
356.955	6.49786
357.171	21.25059
357.386	0.17561
357.602	17.0354
357.817	-8.2537
358.033	17.0354
358.248	25.46587
358.464	46.54368
358.679	-44.07393
358.895	-35.64629
359.11	-37.75323
359.325	63.4076
359.541	124.55141
359.756	-4.03909
359.972	33.89672
360.187	-27.21824
360.402	-4.03909
360.618	33.89672
360.833	40.22009
361.048	-10.36097
361.264	6.49786
361.479	-12.46822
361.694	29.68125
361.909	23.35822
362.125	8.60532
362.34	4.39042
362.555	65.5157
362.77	31.78897
362.986	50.75953
363.201	57.08346
363.416	42.32793
363.631	88.70622
363.847	-12.46822
364.062	-4.03909
364.277	-52.50118
364.492	38.11228
364.707	-77.78048
364.922	-18.7898
365.138	19.14299
365.353	71.84011
365.568	59.19149
365.783	-4.03909
365.998	10.7128
366.213	29.68125
366.428	54.97546
366.643	6.49786
366.858	-14.57544
367.073	-39.86016
367.288	54.97546
367.503	-25.11117
367.718	38.11228
367.933	61.29953
368.148	17.0354
368.363	42.32793
368.578	-23.00407
368.793	25.46587
369.008	4.39042
369.223	59.19149
369.438	-1.93175
369.653	10.7128
369.868	38.11228
370.083	50.75953
370.298	-44.07393
370.513	-12.46822
370.728	21.25059
370.943	21.25059
371.157	-46.18078
371.372	67.62381
371.587	-4.03909
371.802	105.57375
372.017	42.32793
372.232	84.48956
372.446	71.84011
372.661	-60.92802
372.876	42.32793
373.091	33.89672
373.306	12.82031
373.52	-14.57544
373.735	-10.36097
373.95	73.9483
374.165	-46.18078
374.379	88.70622
374.594	-8.2537
374.809	6.49786
375.023	6.49786
375.238	-10.36097
375.453	42.32793
375.667	25.46587
375.882	46.54368
376.097	21.25059
376.311	50.75953
376.526	78.16474
376.741	-18.7898
376.955	52.86748
377.17	-1.93175
377.384	6.49786
377.599	36.00449
377.813	46.54368
378.028	-23.00407
378.242	12.82031
378.457	-54.60793
378.672	54.97546
378.886	-8.2537
379.101	-14.57544
379.315	31.78897
379.53	38.11228
379.744	-67.24789
379.958	23.35822
380.173	-37.75323
380.387	23.35822
380.602	17.0354
380.816	14.92785
381.031	90.81458
381.245	48.65159
381.459	0.17561
381.674	-20.89695
381.888	63.4076
382.103	97.13981
382.317	-29.32529
382.531	29.68125
382.746	42.32793
382.96	0.17561
383.174	54.97546
383.388	46.54368
383.603	14.92785
383.817	50.75953
384.031	-6.14641
384.246	-44.07393
384.46	63.4076
384.674	0.17561
384.888	14.92785
385.103	63.4076
385.317	61.29953
385.531	31.78897
385.745	25.46587
385.959	-12.46822
386.174	-4.03909
386.388	-4.03909
386.602	38.11228
386.816	105.57375
387.03	25.46587
387.244	21.25059
387.458	71.84011
387.672	17.0354
387.887	44.4358
388.101	46.54368
388.315	-92.52504
388.529	57.08346
388.743	52.86748
388.957	4.39042
389.171	14.92785
389.385	31.78897
389.599	-88.31244
389.813	63.4076
390.027	-88.31244
390.241	12.82031
390.455	65.5157
390.669	6.49786
390.883	48.65159
391.097	-10.36097
391.311	19.14299
391.525	23.35822
391.738	23.35822
391.952	46.54368
392.166	29.68125
392.38	29.68125
392.594	40.22009
392.808	38.11228
393.022	25.46587
393.236	0.17561
393.449	10.7128
393.663	-20.89695
393.877	54.97546
394.091	97.13981
394.305	48.65159
394.518	19.14299
394.732	-35.64629
394.946	126.66015
395.16	-1.93175
395.373	14.92785
395.587	71.84011
395.801	-8.2537
396.015	-12.46822
396.228	27.57355
396.442	67.62381
396.656	42.32793
396.869	-37.75323
397.083	14.92785
397.297	29.68125
397.51	42.32793
397.724	-6.14641
397.938	-4.03909
398.151	29.68125
398.365	63.4076
398.578	-18.7898
398.792	46.54368
399.005	19.14299
399.219	4.39042
399.433	-16.68263
399.646	12.82031
399.86	-8.2537
400.073	-27.21824
400.287	31.78897
400.5	4.39042
400.714	0.17561
400.927	-4.03909
401.141	38.11228
401.354	-12.46822
401.567	52.86748
401.781	21.25059
401.994	10.7128
402.208	23.35822
402.421	-25.11117
402.635	-16.68263
402.848	4.39042
403.061	31.78897
403.275	54.97546
403.488	29.68125
403.701	21.25059
403.915	6.49786
404.128	-12.46822
404.341	-46.18078
404.555	-29.32529
404.768	4.39042
404.981	-39.86016
405.195	19.14299
405.408	57.08346
405.621	-41.96706
405.834	33.89672
406.048	21.25059
406.261	0.17561
406.474	-16.68263
406.687	21.25059
406.9	6.49786
407.114	29.68125
407.327	97.13981
407.54	-4.03909
407.753	-29.32529
407.966	-69.35446
408.179	14.92785
408.392	-12.46822
408.605	29.68125
408.819	-46.18078
409.032	21.25059
409.245	21.25059
409.458	-8.2537
409.671	21.25059
409.884	38.11228
410.097	12.82031
410.31	-1.93175
410.523	23.35822
410.736	63.4076
410.949	-37.75323
411.162	-33.53931
411.375	-12.46822
411.588	105.57375
411.801	-16.68263
412.014	-1.93175
412.227	-46.18078
412.44	38.11228
412.653	-20.89695
412.865	17.0354
413.078	124.55141
413.291	82.38126
413.504	0.17561
413.717	38.11228
413.93	36.00449
414.143	23.35822
414.356	27.57355
414.568	8.60532
414.781	2.283
414.994	12.82031
415.207	-12.46822
415.42	-12.46822
415.632	54.97546
415.845	31.78897
416.058	63.4076
416.271	-4.03909
416.483	40.22009
416.696	71.84011
416.909	38.11228
417.121	4.39042
417.334	88.70622
417.547	38.11228
417.759	27.57355
417.972	6.49786
418.185	92.92297
418.397	71.84011
418.61	54.97546
418.823	38.11228
419.035	69.73195
419.248	82.38126
419.46	54.97546
419.673	29.68125
419.885	57.08346
420.098	23.35822
420.311	-88.31244
420.523	31.78897
420.736	33.89672
420.948	4.39042
421.161	80.27299
421.373	-4.03909
421.586	29.68125
421.798	25.46587
422.01	63.4076
422.223	-105.16222
422.435	57.08346
422.648	67.62381
422.86	52.86748
423.073	82.38126
423.285	54.97546
423.497	42.32793
423.71	54.97546
423.922	54.97546
424.134	25.46587
424.347	44.4358
424.559	97.13981
424.771	-20.89695
424.984	50.75953
425.196	124.55141
425.408	-20.89695
425.621	21.25059
425.833	69.73195
426.045	42.32793
426.257	25.46587
426.47	48.65159
426.682	-37.75323
426.894	48.65159
427.106	38.11228
427.318	38.11228
427.531	114.00805
427.743	76.05651
427.955	-37.75323
428.167	-14.57544
428.379	14.92785
428.591	-1.93175
428.804	97.13981
429.016	48.65159
429.228	-12.46822
429.44	14.92785
429.652	4.39042
429.864	84.48956
430.076	46.54368
430.288	14.92785
430.5	57.08346
430.712	67.62381
430.924	29.68125
431.136	25.46587
431.348	-29.32529
431.56	76.05651
431.772	48.65159
431.984	38.11228
432.196	6.49786
432.408	21.25059
432.62	8.60532
432.832	8.60532
433.044	86.59788
433.256	31.78897
433.468	99.24826
433.679	71.84011
433.891	21.25059
434.103	-4.03909
434.315	17.0354
434.527	12.82031
434.739	97.13981
434.95	21.25059
435.162	4.39042
435.374	48.65159
435.586	29.68125
435.798	90.81458
436.009	84.48956
436.221	-12.46822
436.433	12.82031
436.645	46.54368
436.856	114.00805
437.068	17.0354
437.28	42.32793
437.491	25.46587
437.703	92.92297
437.915	8.60532
438.126	-10.36097
438.338	-12.46822
438.55	76.05651
438.761	21.25059
438.973	21.25059
439.184	71.84011
439.396	82.38126
439.608	73.9483
439.819	29.68125
440.031	12.82031
440.242	33.89672
440.454	46.54368
440.665	109.79086
440.877	76.05651
441.088	59.19149
441.3	10.7128
441.511	-4.03909
441.723	80.27299
441.934	40.22009
442.146	95.03138
442.357	71.84011
442.569	-10.36097
442.78	36.00449
442.991	76.05651
443.203	36.00449
443.414	84.48956
443.626	25.46587
443.837	88.70622
444.048	63.4076
444.26	48.65159
444.471	12.82031
444.682	29.68125
444.894	97.13981
445.105	84.48956
445.316	65.5157
445.528	57.08346
445.739	23.35822
445.95	71.84011
446.161	42.32793
446.373	107.68229
446.584	31.78897
446.795	65.5157
447.006	14.92785
447.217	40.22009
447.429	0.17561
447.64	54.97546
447.851	59.19149
448.062	46.54368
448.273	6.49786
448.484	73.9483
448.695	19.14299
448.907	44.4358
449.118	42.32793
449.329	21.25059
449.54	65.5157
449.751	120.334
449.962	36.00449
450.173	80.27299
450.384	46.54368
450.595	19.14299
450.806	-46.18078
451.017	107.68229
451.228	54.97546
451.439	105.57375
451.65	4.39042
451.861	-1.93175
452.072	-4.03909
452.283	2.283
452.494	63.4076
452.705	33.89672
452.915	80.27299
453.126	6.49786
453.337	40.22009
453.548	73.9483
453.759	29.68125
453.97	80.27299
454.181	73.9483
454.391	71.84011
454.602	54.97546
454.813	86.59788
455.024	116.11668
455.235	21.25059
455.445	12.82031
455.656	99.24826
455.867	54.97546
456.078	65.5157
456.288	46.54368
456.499	50.75953
456.71	109.79086
456.921	132.98649
457.131	71.84011
457.342	128.76891
457.553	73.9483
457.763	92.92297
457.974	59.19149
458.184	31.78897
458.395	126.66015
458.606	130.87769
458.816	135.09531
459.027	88.70622
459.237	71.84011
459.448	80.27299
459.659	31.78897
459.869	88.70622
460.08	139.31302
460.29	44.4358
460.501	101.35674
460.711	175.16697
460.922	65.5157
461.132	118.22533
461.343	160.40285
461.553	149.85767
461.764	149.85767
461.974	97.13981
462.184	166.73021
462.395	101.35674
462.605	114.00805
462.816	114.00805
463.026	88.70622
463.236	160.40285
463.447	132.98649
463.657	141.42191
463.867	164.62107
464.078	99.24826
464.288	166.73021
464.498	158.29377
464.709	135.09531
464.919	170.94855
465.129	255.33235
465.339	147.7487
465.55	97.13981
465.76	116.11668
465.97	99.24826
466.18	189.93211
466.391	185.7134
466.601	198.36978
466.811	132.98649
467.021	107.68229
467.231	149.85767
467.441	249.00247
467.651	316.52984
467.862	166.73021
468.072	227.90414
468.282	194.1509
468.492	223.68471
468.702	301.75662
468.912	215.24608
469.122	251.11241
469.332	215.24608
469.542	295.42551
469.752	240.56291
469.962	320.75093
470.172	350.30049
470.382	297.53586
470.592	206.80777
470.802	308.08789
471.012	276.43317
471.222	303.86702
471.432	343.96815
471.642	259.55236
471.852	333.4146
472.062	259.55236
472.272	358.74385
472.482	430.52323
472.691	295.42551
472.901	329.19331
473.111	413.63227
473.321	261.6624
473.531	343.96815
473.741	367.18749
473.95	426.3004
474.16	483.31395
474.37	413.63227
474.58	483.31395
474.79	591.03522
474.999	521.32906
475.209	502.32091
475.419	487.53762
475.628	531.88963
475.838	624.83732
476.048	546.67503
476.258	569.91058
476.467	709.35615
476.677	572.02299
476.886	800.23344
477.096	738.94201
477.306	791.77895
477.515	808.68807
477.725	876.33038
477.935	698.79028
478.144	840.39428
478.354	817.14286
478.563	910.15478
478.773	933.41021
478.982	1039.12736
479.192	893.24232
479.401	958.78079
479.611	969.35217
479.82	960.89506
480.03	1089.87697
480.239	1123.71168
480.449	1081.41849
480.658	1212.53298
480.868	1178.6955
481.077	1360.58019
481.287	1267.52062
481.496	1394.42075
481.705	1322.50994
481.915	1586.88925
482.124	1419.8013
482.333	1489.59798
482.543	1451.52707
482.752	1584.77425
482.961	1715.89994
483.171	1648.22336
483.38	1544.58899
483.589	1775.11423
483.799	1703.21081
484.008	1855.4714
484.217	1550.93407
484.426	1889.30397
484.636	1870.27331
484.845	1908.3342
485.054	1819.52294
485.263	1982.33628
485.472	2007.7067
485.682	2123.97514
485.891	1963.30787
486.1	2047.87459
486.309	2151.45348
486.518	2212.74635
486.727	2265.57922
486.936	2411.3673
487.146	2364.88927
487.355	2303.61536
487.564	2248.67331
487.773	2590.89195
487.982	2417.70483
488.191	2489.52333
488.4	2491.63544
488.609	2521.20389
488.818	2624.67541
489.027	2675.34466
489.236	2664.78916
489.445	2726.00656
489.654	2658.45572
489.863	2991.85208
490.072	2806.20565
490.281	2911.70034
490.49	2810.42611
490.698	3040.35442
490.907	2945.45105
491.116	3240.60175
491.325	3166.84339
491.534	3278.52668
491.743	2953.88814
491.952	3124.68676
492.16	3308.02005
492.369	3409.11448
492.578	3276.41988
492.787	3358.57228
492.996	3527.00631
493.204	3560.67921
493.413	3299.59371
493.622	3815.17404
493.831	3516.48257
494.039	3712.14798
494.248	3552.26143
494.457	3636.42584
494.665	3585.93078
494.874	3918.15276
495.083	3733.1775
495.291	3863.51695
495.5	3855.11024
495.709	3920.25386
495.917	3840.39774
496.126	3905.5457
496.335	3876.12641
496.543	4165.94193
496.752	3943.3647
496.96	4111.36909
497.169	4094.5746
497.377	4296.01943
497.586	4193.22301
497.794	4348.44675
498.003	4006.38176
498.211	4407.14927
498.42	4442.78175
498.628	4648.06818
498.837	4388.28246
499.045	4587.34238
499.254	4578.96494
499.462	4832.22367
499.671	4551.73578
499.879	4966.04424
500.087	4631.31811
500.296	4867.7789
500.504	4671.09717
500.713	4681.564
500.921	4846.86486
501.129	4790.38555
501.338	4648.06818
501.546	4995.30495
501.754	4832.22367
501.962	4991.12513
502.171	4938.86954
502.379	5245.92487
502.587	4978.5851
502.795	5124.83367
503.004	5095.59303
503.212	5285.57561
503.42	5335.64868
503.628	5414.90342
503.837	5179.12562
504.045	5325.2179
504.253	5377.36592
504.461	5462.85692
504.669	5233.40183
504.877	5419.07378
505.085	5429.49928
505.294	5442.0091
505.502	5642.05098
505.71	5658.71133
505.918	5423.24405
506.126	5600.3935
506.334	5644.13361
506.542	5779.45371
506.75	5554.55937
506.958	5750.31627
507.166	5631.63749
507.374	5910.51496
507.582	5812.74798
507.79	5877.23844
507.998	5937.5477
508.206	6137.05074
508.414	5816.90934
508.622	6278.23434
508.83	6014.4652
509.037	6178.58659
509.245	5895.95723
509.453	6336.33729
509.661	6078.88476
509.869	6319.73832
510.077	6024.85698
510.285	6305.21299
510.492	6172.35681
510.7	6344.63622
510.908	6143.28172
511.116	6236.72101
511.324	6282.38516
511.531	6303.13785
511.739	6269.93243
511.947	6411.01418
512.155	6369.53075
512.362	6692.8554
512.57	6307.28811
512.778	6435.89977
512.985	6663.86205
513.193	6518.82756
513.401	6493.95312
513.608	6533.3361
513.816	6477.36831
514.024	6725.98514
514.231	6525.04564
514.439	6771.52896
514.646	6777.73862
514.854	6870.85893
515.061	6626.57827
515.269	6903.95727
515.477	6750.82859
515.684	6887.40883
515.892	6773.59887
516.099	7176.79858
516.307	6966.00105
516.514	7170.60196
516.722	7125.15403
516.929	7044.5607
517.136	7032.1587
517.344	7052.82825
517.551	7003.21756
517.759	7240.81856
517.966	7147.87934
518.173	7160.27383
518.381	7079.6953
518.588	7366.73155
518.796	7414.18581
519.003	7426.56329
519.21	7377.04867
519.418	7544.11051
519.625	7341.96823
519.832	7640.98296
520.039	7451.3159
520.247	7486.37677
520.454	7457.50357
520.661	8079.42018
520.868	7797.52875
521.076	7939.55141
521.283	7655.40675
521.49	7704.85185
521.697	7846.93912
521.904	7818.11786
522.112	7900.45353
522.319	8007.44065
522.526	8091.75704
522.733	8116.42859
522.94	8112.31687
523.147	7863.40658
523.354	7956.01145
523.561	8202.75633
523.768	7947.78159
523.975	8397.89296
524.183	7976.58466
524.39	8284.94067
524.597	8239.74319
524.804	8326.02105
525.011	8247.96162
525.218	8171.92903
525.425	8309.58984
525.632	8399.9461
525.838	8457.42605
526.045	8613.36778
526.252	8674.89386
526.459	8994.56446
526.666	8678.995
526.873	8720.00238
527.08	8590.80402
527.287	8949.50914
527.494	8475.89856
527.701	8890.10493
527.907	8584.64987
528.114	8969.98989
528.321	8773.30098
528.528	8877.81254
528.735	8814.29151
528.941	8941.31634
529.148	8832.73488
529.355	9189.02474
529.562	8871.6661
529.768	9060.08431
529.975	9060.08431
530.182	9189.02474
530.388	8859.37273
530.595	9211.53119
530.802	9231.98984
531.008	9473.27642
531.215	9170.60884
531.422	9450.79323
531.628	9465.10094
531.835	9407.86533
532.042	9250.40117
532.248	9669.41177
532.455	9640.8177
532.661	9655.11511
532.868	9366.97495
533.074	9808.2545
533.281	9853.15926
533.487	9732.71645
533.694	9704.12907
533.9	9959.26933
534.107	9834.79
534.313	9840.91322
534.52	9712.2972
534.726	9942.94728
534.933	9706.17112
535.139	10053.1032
535.345	10087.77329
535.552	9981.71063
535.758	10081.65534
535.965	9936.82627
536.171	10002.1103
536.377	10291.63367
536.584	10179.5275
536.79	10132.63443
536.996	10248.83435
537.203	10183.60481
537.409	10110.20471
537.615	10240.68142
537.821	10102.04803
538.028	10578.8503
538.234	10454.62501
538.44	10417.95928
538.646	10354.80282
538.853	10837.33603
539.059	10674.53311
539.265	10568.66967
539.471	10468.88278
539.677	10869.88757
539.883	10757.97912
540.09	10829.19768
540.296	10580.88639
540.502	11042.76877
540.708	10918.70935
540.914	11046.83559
541.12	11006.16538
541.326	11091.56776
541.532	10920.74345
541.738	11189.14716
541.944	10941.0838
542.15	11191.17981
542.356	10969.55841
542.562	11367.98044
542.768	11197.27768
542.974	11258.25123
543.18	11284.67022
543.386	11341.56683
543.592	11264.34807
543.798	11670.60482
544.004	11611.72103
544.21	11546.73688
544.415	11518.30331
544.621	11593.44519
544.827	11784.29025
545.033	11729.48107
545.239	11307.0234
545.445	11918.24207
545.651	11542.67505
545.856	11818.7965
546.062	11632.02664
546.268	11471.587
546.474	11666.54411
546.679	11522.36536
546.885	11794.4394
547.091	11859.38895
547.297	11426.89708
547.502	11991.29154
547.708	11613.75163
547.914	12113.01785
548.119	12163.729
548.325	12007.52335
548.531	11920.27136
548.736	11950.7098
548.942	12019.69687
549.147	11908.09548
549.353	12104.90363
549.559	12358.41739
549.764	11995.34954
549.97	12143.44511
550.175	12188.06869
550.381	12548.98844
550.586	12159.67228
550.792	12390.85916
550.997	12291.50066
551.203	12210.37914
551.408	12342.19585
551.614	12581.42038
551.819	12486.14694
552.025	12897.55212
552.23	12739.50377
552.435	12788.13764
552.641	12978.58985
552.846	12753.68899
553.052	12557.09658
553.257	12771.92671
553.462	12996.82221
553.668	12828.66338
553.873	12822.58466
554.078	13006.95112
554.283	12889.44789
554.489	13207.47862
554.694	13087.97794
554.899	13008.97688
555.105	13173.04786
555.31	13154.81928
555.515	13160.89552
555.72	13320.88859
555.925	13239.88285
556.131	13203.42801
556.336	13083.92678
556.541	13136.59033
556.746	13027.20856
556.951	13306.71308
557.156	13393.78804
557.361	13274.31113
557.567	13343.16398
557.772	13806.7948
557.977	13582.08839
558.182	13725.82403
558.387	13594.23572
558.592	13559.81797
558.797	13565.89176
559.002	13539.57175
559.207	13663.06827
559.412	13873.59213
559.617	13928.24225
559.822	13877.64036
560.027	13746.06718
560.232	13687.36119
560.437	13636.7504
560.642	13610.43197
560.847	13699.50747
561.051	14197.41841
561.256	13772.38281
561.461	13912.04982
561.666	14073.96674
561.871	13978.84249
562.076	13968.72257
562.281	14248.01114
562.485	13640.79934
562.69	13855.37498
562.895	14015.27368
563.1	14150.87199
563.305	13843.23009
563.509	14098.25296
563.714	14013.24975
563.919	14264.20056
564.123	14175.15722
564.328	14395.73539
564.533	14193.37094
564.737	14005.15399
564.942	14152.89577
565.147	14369.42899
565.351	14298.60268
565.556	14252.0585
565.761	14154.91955
565.965	14707.34762
566.17	14446.32389
566.374	14292.53176
566.579	14446.32389
566.784	14751.86155
566.988	14723.53455
567.193	14642.59929
567.397	14438.22979
567.602	15081.66004
567.806	14672.95019
568.011	14768.04833
568.215	14749.8382
568.42	14824.70171
568.624	14691.16063
568.828	14729.60463
569.033	14670.9268
569.237	15194.96323
569.442	14964.30978
569.646	15016.91518
569.85	14891.4711
570.055	14950.14675
570.259	15099.8695
570.463	15352.77884
570.668	15045.24109
570.872	15140.33493
571.076	15093.79968
571.281	15350.75555
571.485	15091.77641
571.689	15275.89416
571.893	14907.65752
572.098	15298.15021
572.302	15033.10142
572.506	15391.22135
572.71	15312.31317
572.914	15874.80824
573.119	15391.22135
573.323	15391.22135
573.527	15318.38301
573.731	15460.0136
573.935	15591.53003
574.139	15334.56927
574.343	15073.56695
574.547	15585.45998
574.751	15518.68983
574.955	15880.87871
