Data from mixed_try1_USB4F045381__21__00043.txt Node

Date: Thu Apr 03 19:34:07 EDT 2025
User: mmckonesweet
Spectrometer: USB4F04538
Trigger mode: 4
Integration Time (sec): 2.700000E-3
Scans to average: 1
Electric dark correction enabled: true
Nonlinearity correction enabled: true
Boxcar width: 0
XAxis mode: Wavelengths
Number of Pixels in Spectrum: 3648
>>>>>Begin Spectral Data<<<<<
345.52	115.58952
345.736	115.58952
345.952	115.58952
346.168	33.36978
346.384	12.29343
346.6	8.07845
346.816	-34.06606
347.032	-21.42373
347.248	29.15432
347.464	3.86356
347.68	-40.38689
347.896	31.26204
348.112	5.97099
348.328	-29.85205
348.544	-15.10224
348.76	48.12461
348.975	14.40096
349.191	83.96248
349.407	-2.45859
349.623	5.97099
349.839	-38.27997
350.055	37.58533
350.27	62.88058
350.486	-0.35123
350.702	37.58533
350.918	-21.42373
351.133	41.80097
351.349	50.23254
351.565	14.40096
351.781	43.90883
351.996	22.83131
352.212	31.26204
352.428	39.69314
352.644	58.66448
352.859	24.93896
353.075	56.55646
353.291	-71.98763
353.506	24.93896
353.722	31.26204
353.938	-17.20943
354.153	10.18593
354.369	33.36978
354.584	39.69314
354.8	81.85419
355.016	102.93811
355.231	-10.88778
355.447	62.88058
355.662	-29.85205
355.878	88.17913
356.093	27.04663
356.309	75.52945
356.524	46.01671
356.74	71.31307
356.955	39.69314
357.171	37.58533
357.386	46.01671
357.602	67.09678
357.817	109.26371
358.033	22.83131
358.248	12.29343
358.464	92.39587
358.679	-0.35123
358.895	12.29343
359.11	-19.31659
359.325	24.93896
359.541	14.40096
359.756	-27.74501
359.972	67.09678
360.187	5.97099
360.402	-44.60065
360.618	37.58533
360.833	50.23254
361.048	31.26204
361.264	22.83131
361.479	48.12461
361.694	33.36978
361.909	3.86356
362.125	-17.20943
362.34	20.72369
362.555	46.01671
362.77	50.23254
362.986	22.83131
363.201	79.74592
363.416	22.83131
363.631	-122.53679
363.847	-17.20943
364.062	71.31307
364.277	96.6127
364.492	14.40096
364.707	-25.63794
364.922	-42.49378
365.138	5.97099
365.353	43.90883
365.568	-29.85205
365.783	24.93896
365.998	33.36978
366.213	22.83131
366.428	-12.99502
366.643	-122.53679
366.858	71.31307
367.073	29.15432
367.288	48.12461
367.503	3.86356
367.718	46.01671
367.933	5.97099
368.148	8.07845
368.363	-21.42373
368.578	5.97099
368.793	102.93811
369.008	14.40096
369.223	56.55646
369.438	22.83131
369.653	48.12461
369.868	-6.67324
370.083	105.04662
370.298	50.23254
370.513	48.12461
370.728	14.40096
370.943	31.26204
371.157	54.44846
371.372	105.04662
371.587	50.23254
371.802	41.80097
372.017	22.83131
372.232	46.01671
372.446	8.07845
372.661	58.66448
372.876	54.44846
373.091	12.29343
373.306	12.29343
373.52	52.34049
373.735	24.93896
373.95	69.20492
374.165	71.31307
374.379	92.39587
374.594	46.01671
374.809	50.23254
375.023	8.07845
375.238	29.15432
375.453	8.07845
375.667	67.09678
375.882	81.85419
376.097	54.44846
376.311	20.72369
376.526	27.04663
376.741	-8.78052
376.955	20.72369
377.17	-65.66794
377.384	33.36978
377.599	3.86356
377.813	-17.20943
378.028	48.12461
378.242	33.36978
378.457	54.44846
378.672	39.69314
378.886	37.58533
379.101	54.44846
379.315	100.82962
379.53	31.26204
379.744	-46.70749
379.958	1.75615
380.173	54.44846
380.387	69.20492
380.602	88.17913
380.816	-55.13461
381.031	41.80097
381.245	-8.78052
381.459	62.88058
381.674	-2.45859
381.888	58.66448
382.103	-4.56592
382.317	31.26204
382.531	-4.56592
382.746	37.58533
382.96	81.85419
383.174	-0.35123
383.388	33.36978
383.603	-12.99502
383.817	52.34049
384.031	46.01671
384.246	16.50851
384.46	16.50851
384.674	56.55646
384.888	73.42125
385.103	46.01671
385.317	75.52945
385.531	115.58952
385.745	16.50851
385.959	41.80097
386.174	50.23254
386.388	64.98867
386.602	62.88058
386.816	-34.06606
387.03	14.40096
387.244	1.75615
387.458	31.26204
387.672	-27.74501
387.887	37.58533
388.101	8.07845
388.315	33.36978
388.529	81.85419
388.743	-4.56592
388.957	18.61609
389.171	3.86356
389.385	79.74592
389.599	67.09678
389.813	75.52945
390.027	39.69314
390.241	121.91552
390.455	3.86356
390.669	-17.20943
390.883	102.93811
391.097	48.12461
391.311	22.83131
391.525	18.61609
391.738	-2.45859
391.952	113.4809
392.166	37.58533
392.38	62.88058
392.594	67.09678
392.808	-21.42373
393.022	10.18593
393.236	3.86356
393.449	60.77252
393.663	-67.77453
393.877	46.01671
394.091	56.55646
394.305	43.90883
394.518	22.83131
394.732	71.31307
394.946	-0.35123
395.16	39.69314
395.373	46.01671
395.587	113.4809
395.801	37.58533
396.015	20.72369
396.228	88.17913
396.442	35.47754
396.656	-21.42373
396.869	71.31307
397.083	62.88058
397.297	12.29343
397.51	-0.35123
397.724	83.96248
397.938	43.90883
398.151	12.29343
398.365	67.09678
398.578	41.80097
398.792	111.37229
399.005	-17.20943
399.219	37.58533
399.433	69.20492
399.646	75.52945
399.86	-8.78052
400.073	-10.88778
400.287	41.80097
400.5	54.44846
400.714	75.52945
400.927	100.82962
401.141	-2.45859
401.354	-4.56592
401.567	81.85419
401.781	62.88058
401.994	115.58952
402.208	29.15432
402.421	3.86356
402.635	-25.63794
402.848	37.58533
403.061	8.07845
403.275	1.75615
403.488	60.77252
403.701	33.36978
403.915	24.93896
404.128	29.15432
404.341	-0.35123
404.555	37.58533
404.768	8.07845
404.981	8.07845
405.195	92.39587
405.408	64.98867
405.621	41.80097
405.834	12.29343
406.048	29.15432
406.261	39.69314
406.474	-67.77453
406.687	62.88058
406.9	16.50851
407.114	5.97099
407.327	29.15432
407.54	20.72369
407.753	20.72369
407.966	37.58533
408.179	52.34049
408.392	56.55646
408.605	73.42125
408.819	5.97099
409.032	81.85419
409.245	-10.88778
409.458	46.01671
409.671	50.23254
409.884	62.88058
410.097	83.96248
410.31	126.13296
410.523	79.74592
410.736	5.97099
410.949	-10.88778
411.162	140.89469
411.375	-15.10224
411.588	29.15432
411.801	14.40096
412.014	-34.06606
412.227	33.36978
412.44	20.72369
412.653	48.12461
412.865	29.15432
413.078	-8.78052
413.291	50.23254
413.504	37.58533
413.717	37.58533
413.93	-25.63794
414.143	96.6127
414.356	62.88058
414.568	46.01671
414.781	46.01671
414.994	22.83131
415.207	5.97099
415.42	12.29343
415.632	-21.42373
415.845	88.17913
416.058	20.72369
416.271	14.40096
416.483	75.52945
416.696	14.40096
416.909	73.42125
417.121	12.29343
417.334	50.23254
417.547	102.93811
417.759	16.50851
417.972	81.85419
418.185	58.66448
418.397	12.29343
418.61	20.72369
418.823	81.85419
419.035	62.88058
419.248	105.04662
419.46	73.42125
419.673	41.80097
419.885	105.04662
420.098	5.97099
420.311	43.90883
420.523	113.4809
420.736	18.61609
420.948	96.6127
421.161	56.55646
421.373	24.93896
421.586	117.69816
421.798	54.44846
422.01	8.07845
422.223	98.72115
422.435	124.02423
422.648	81.85419
422.86	29.15432
423.073	33.36978
423.285	138.7858
423.497	35.47754
423.71	88.17913
423.922	5.97099
424.134	46.01671
424.347	79.74592
424.559	79.74592
424.771	75.52945
424.984	58.66448
425.196	14.40096
425.408	27.04663
425.621	14.40096
425.833	83.96248
426.045	64.98867
426.257	-2.45859
426.47	81.85419
426.682	-50.9211
426.894	71.31307
427.106	62.88058
427.318	24.93896
427.531	14.40096
427.743	50.23254
427.955	-40.38689
428.167	20.72369
428.379	31.26204
428.591	12.29343
428.804	52.34049
429.016	105.04662
429.228	41.80097
429.44	-21.42373
429.652	79.74592
429.864	43.90883
430.076	48.12461
430.288	64.98867
430.5	48.12461
430.712	81.85419
430.924	-2.45859
431.136	37.58533
431.348	46.01671
431.56	-48.81431
431.772	92.39587
431.984	12.29343
432.196	100.82962
432.408	-4.56592
432.62	64.98867
432.832	10.18593
433.044	71.31307
433.256	62.88058
433.468	22.83131
433.679	46.01671
433.891	62.88058
434.103	43.90883
434.315	31.26204
434.527	62.88058
434.739	79.74592
434.95	79.74592
435.162	50.23254
435.374	-10.88778
435.586	20.72369
435.798	71.31307
436.009	121.91552
436.221	62.88058
436.433	27.04663
436.645	96.6127
436.856	48.12461
437.068	75.52945
437.28	37.58533
437.491	20.72369
437.703	64.98867
437.915	98.72115
438.126	46.01671
438.338	83.96248
438.55	50.23254
438.761	67.09678
438.973	83.96248
439.184	39.69314
439.396	29.15432
439.608	22.83131
439.819	22.83131
440.031	14.40096
440.242	24.93896
440.454	-17.20943
440.665	71.31307
440.877	79.74592
441.088	54.44846
441.3	24.93896
441.511	20.72369
441.723	132.45929
441.934	109.26371
442.146	35.47754
442.357	33.36978
442.569	83.96248
442.78	102.93811
442.991	56.55646
443.203	96.6127
443.414	90.28749
443.626	16.50851
443.837	90.28749
444.048	43.90883
444.26	81.85419
444.471	64.98867
444.682	75.52945
444.894	71.31307
445.105	56.55646
445.316	-0.35123
445.528	130.35049
445.739	64.98867
445.95	126.13296
446.161	92.39587
446.373	60.77252
446.584	46.01671
446.795	121.91552
447.006	96.6127
447.217	88.17913
447.429	8.07845
447.64	115.58952
447.851	43.90883
448.062	56.55646
448.273	50.23254
448.484	107.15516
448.695	71.31307
448.907	54.44846
449.118	111.37229
449.329	41.80097
449.54	109.26371
449.751	119.80683
449.962	75.52945
450.173	56.55646
450.384	16.50851
450.595	39.69314
450.806	56.55646
451.017	79.74592
451.228	136.67694
451.439	41.80097
451.65	58.66448
451.861	24.93896
452.072	90.28749
452.283	94.50427
452.494	109.26371
452.705	105.04662
452.915	96.6127
453.126	58.66448
453.337	5.97099
453.548	33.36978
453.759	81.85419
453.97	92.39587
454.181	155.65745
454.391	67.09678
454.602	-10.88778
454.813	107.15516
455.024	64.98867
455.235	115.58952
455.445	140.89469
455.656	140.89469
455.867	46.01671
456.078	79.74592
456.288	102.93811
456.499	79.74592
456.71	14.40096
456.921	73.42125
457.131	94.50427
457.342	145.11251
457.553	113.4809
457.763	147.22146
457.974	18.61609
458.184	183.07674
458.395	71.31307
458.606	121.91552
458.816	79.74592
459.027	157.7665
459.237	121.91552
459.448	109.26371
459.659	88.17913
459.869	71.31307
460.08	143.00359
460.29	48.12461
460.501	22.83131
460.711	178.85816
460.922	119.80683
461.132	105.04662
461.343	113.4809
461.553	195.73297
461.764	69.20492
461.974	50.23254
462.184	121.91552
462.395	134.5681
462.605	75.52945
462.816	105.04662
463.026	159.87558
463.236	130.35049
463.447	96.6127
463.657	147.22146
463.867	48.12461
464.078	46.01671
464.288	164.09378
464.498	161.98467
464.709	96.6127
464.919	113.4809
465.129	88.17913
465.339	151.43941
465.55	180.96744
465.76	161.98467
465.97	126.13296
466.18	130.35049
466.391	189.40476
466.601	159.87558
466.811	138.7858
467.021	143.00359
467.231	212.60907
467.441	185.18606
467.651	216.8283
467.862	174.63967
468.072	271.68532
468.282	176.7489
468.492	206.28038
468.702	208.38993
468.912	214.71868
469.122	320.22329
469.332	235.81579
469.542	265.355
469.752	244.25518
469.962	294.89792
470.172	275.90563
470.382	265.355
470.592	275.90563
470.802	311.78121
471.012	280.12601
471.222	316.00221
471.432	332.88694
471.642	309.67074
471.852	326.55503
472.062	406.7706
472.272	351.8836
472.482	383.5478
472.691	368.7707
472.901	360.32701
473.111	400.43691
473.321	326.55503
473.531	478.56239
473.741	434.21827
473.95	510.24083
474.16	383.5478
474.37	459.55694
474.58	527.13733
474.79	510.24083
474.999	493.34525
475.209	506.01685
475.419	626.42187
475.628	560.93302
475.838	594.73216
476.048	632.76015
476.258	605.29508
476.467	727.84706
476.677	742.64038
476.886	799.70503
477.096	797.5914
477.306	746.86714
477.515	774.34207
477.725	806.04598
477.935	907.51217
478.144	907.51217
478.354	856.7766
478.563	947.68104
478.773	994.19557
478.982	1015.3396
479.192	970.93789
479.401	1042.82774
479.611	1019.56848
479.82	1025.91184
480.03	1006.88191
480.239	1017.45403
480.449	1070.31686
480.658	1321.98119
480.868	1239.49783
481.077	1288.14145
481.287	1241.61274
481.496	1398.12207
481.705	1309.29123
481.915	1446.7682
482.124	1465.80367
482.333	1497.52941
482.543	1389.6619
482.752	1713.25638
482.961	1529.25502
483.171	1687.87797
483.38	1635.00495
483.589	1601.16545
483.799	1670.95878
484.008	1702.6821
484.217	1592.70549
484.426	1876.08828
484.636	1888.77534
484.845	1859.1719
485.054	1876.08828
485.263	1990.26464
485.472	1865.51558
485.682	2305.20013
485.891	2091.73927
486.1	2271.39049
486.309	2032.54766
486.518	2271.39049
486.727	2188.96978
486.936	2417.1767
487.146	2381.26278
487.355	2450.97525
487.564	2438.30112
487.773	2588.25249
487.982	2541.79487
488.191	2687.48309
488.4	2548.13034
488.609	2598.81023
488.818	2518.56394
489.027	2626.25894
489.236	2740.25387
489.445	2835.22021
489.654	2822.55963
489.863	3020.84902
490.072	2873.19889
490.281	2881.63798
490.49	2930.15822
490.698	3067.23808
490.907	3122.05176
491.116	3035.60999
491.325	3054.58726
491.534	3214.78863
491.743	3227.4321
491.952	3235.86075
492.16	3332.77082
492.369	3446.48809
492.578	3299.06706
492.787	3467.54116
492.996	3385.42408
493.204	3619.06938
493.413	3427.53879
493.622	3635.89991
493.831	3387.52999
494.039	3562.25752
494.248	3627.4848
494.457	3745.2686
494.665	3804.13778
494.874	3919.72859
495.083	3871.39795
495.291	3659.0399
495.5	3764.1925
495.709	3896.61526
495.917	3968.04857
496.126	4094.04975
496.335	3938.63768
496.543	4213.68148
496.752	4024.75827
496.96	4110.84429
497.169	4249.34782
497.377	4154.92356
497.586	4106.64578
497.794	4337.43813
498.003	4299.68978
498.211	4595.19591
498.42	4282.9105
498.628	4500.93291
498.837	4339.53506
499.045	4375.17948
499.254	4373.08292
499.462	4618.23113
499.671	4628.70078
499.879	4936.25638
500.087	4666.38692
500.296	4810.78277
500.504	4731.27373
500.713	4852.61645
500.921	4727.08814
501.129	4695.69332
501.338	4626.6069
501.546	4886.07682
501.754	4846.34198
501.962	4944.61836
502.171	4810.78277
502.379	5118.04607
502.587	5030.30736
502.795	5099.24836
503.004	4971.79223
503.212	5326.78255
503.42	5038.66519
503.628	5333.04104
503.837	5136.8419
504.045	5360.1587
504.253	5345.55737
504.461	5406.04109
504.669	5428.97802
504.877	5458.16637
505.085	5412.2969
505.294	5631.1168
505.502	5308.00584
505.71	5516.52923
505.918	5666.52035
506.126	5789.33858
506.334	5320.52386
506.542	5789.33858
506.75	5360.1587
506.958	5726.8989
507.166	5593.62327
507.374	6070.05439
507.582	5789.33858
507.79	5959.89867
507.998	6036.8068
508.206	6070.05439
508.414	5847.59645
508.622	6157.30064
508.83	5968.21462
509.037	6140.6855
509.245	5812.22781
509.453	6115.75998
509.661	6045.11926
509.869	6454.0434
510.077	6153.147
510.285	6441.60225
510.492	6223.74617
510.7	6412.56963
510.908	6136.53148
511.116	6310.91951
511.324	6321.29454
511.531	6574.26481
511.739	6487.21572
511.947	6325.44439
512.155	6445.74939
512.362	6530.74537
512.57	6352.41612
512.778	6597.05664
512.985	6514.16385
513.193	6754.45132
513.401	6700.62071
513.608	6663.34427
513.816	6464.41039
514.024	6880.68561
514.231	6725.46753
514.439	6961.34847
514.646	6661.27314
514.854	6957.21275
515.061	6543.18054
515.269	6810.33598
515.477	6773.08139
515.684	7066.77892
515.892	6882.75431
516.099	7068.8456
516.307	6953.07694
516.514	7137.03351
516.722	6973.75509
516.929	7114.3069
517.136	7010.97008
517.344	7223.78306
517.551	6917.9189
517.759	7345.57974
517.966	7114.3069
518.173	7463.17543
518.381	7225.84805
518.588	7287.78747
518.796	7106.04202
519.003	7492.0478
519.21	7560.08741
519.418	7537.41014
519.625	7287.78747
519.832	7628.1037
520.039	7601.31218
520.247	7510.60638
520.454	7621.92136
520.661	7735.23396
520.868	7463.17543
521.076	8130.30507
521.283	7609.5561
521.49	7634.28585
521.697	7733.1743
521.904	7967.8413
522.112	7755.8294
522.319	8222.79167
522.526	7856.71683
522.733	8083.01851
522.94	8048.06072
523.147	7949.32471
523.354	8039.83451
523.561	8233.06548
523.768	8095.35516
523.975	8391.22014
524.183	8091.24302
524.39	8335.77649
524.597	8288.53552
524.804	8343.99126
525.011	8383.00716
525.218	8569.77664
525.425	8265.93834
525.632	8424.06899
525.838	8434.33324
526.045	8545.15672
526.252	8497.96091
526.459	8801.48275
526.666	8660.02659
526.873	8875.25154
527.08	8826.07494
527.287	8887.54407
527.494	8662.07731
527.701	8729.74055
527.907	8760.48994
528.114	9037.05202
528.321	9059.5725
528.528	8893.69009
528.735	9059.5725
528.941	8938.75604
529.148	8821.97643
529.355	9098.46657
529.562	8760.48994
529.768	9141.4475
529.975	8737.94079
530.182	8920.32101
530.388	9145.54053
530.595	9166.00464
530.802	8873.20272
531.008	9709.74468
531.215	9301.02536
531.422	9354.19536
531.628	9552.46314
531.835	9241.7071
532.042	9288.75377
532.248	9677.07038
532.455	9433.92955
532.661	9777.12308
532.868	9679.11264
533.074	9744.45684
533.281	9734.24784
533.487	9907.74969
533.694	9685.23932
533.9	9946.51781
534.107	9611.7099
534.313	9856.73092
534.52	9924.07375
534.726	9664.8165
534.933	9734.24784
535.139	10077.06679
535.345	9938.35654
535.552	10032.19719
535.758	10095.42056
535.965	10136.20264
536.171	10146.39729
536.377	10346.14329
536.584	10227.94204
536.79	10390.96653
536.996	10480.59405
537.203	10608.88136
537.409	10199.40388
537.615	10183.09515
537.821	10315.57833
538.028	10464.3
538.234	10478.55734
538.44	10712.69691
538.646	10517.25268
538.853	10539.65315
539.059	10454.1158
539.265	10555.94344
539.471	10468.37359
539.677	10763.57539
539.883	10641.45437
540.09	10582.41345
540.296	10676.05975
540.502	11243.51681
540.708	10753.40029
540.914	11072.76056
541.12	10844.96556
541.326	11276.03343
541.532	11078.8603
541.738	11188.639
541.944	11095.12578
542.15	11123.58871
542.356	11125.6217
542.562	11172.37744
542.768	11097.15892
542.974	11064.62743
543.18	10859.20692
543.386	11540.13639
543.592	11399.9793
543.798	11631.51901
544.004	11698.52121
544.21	11542.16732
544.415	11206.93244
544.621	11728.97354
544.827	11351.21815
545.033	11599.02955
545.239	11371.53599
545.445	11887.29432
545.651	11785.81263
545.856	11956.28998
546.062	11731.00363
546.268	11637.61053
546.474	11659.94538
546.679	11544.19824
546.885	11627.45796
547.091	11842.64498
547.297	11692.4305
547.502	11795.96176
547.708	11769.57359
547.914	11992.8133
548.119	12146.99484
548.325	12082.08173
548.531	12047.59345
548.736	12246.37824
548.942	12179.44851
549.147	12114.53926
549.353	11960.34825
549.559	12080.05307
549.764	12410.62752
549.97	12297.07735
550.175	12412.65501
550.381	12402.5175
550.586	12250.43433
550.792	12293.02158
550.997	12288.96579
551.203	12497.80349
551.408	12485.64013
551.614	12447.12127
551.819	12818.02559
552.025	12998.34155
552.23	12589.02139
552.435	12597.12903
552.641	12953.77293
552.846	12972.00585
553.052	12645.77283
553.257	12767.36732
553.462	12815.99933
553.668	12858.54971
553.873	12761.2881
554.078	12763.31451
554.283	12852.47123
554.489	13006.44467
554.694	13095.5738
554.899	13081.3948
555.105	12799.78902
555.31	13093.54825
555.515	13146.21121
555.72	13338.60769
555.925	13251.52785
556.131	13257.60344
556.336	13016.57346
556.541	13474.27522
556.746	13587.65594
556.951	13383.1572
557.156	13148.23665
557.361	13405.43122
557.567	13263.679
557.772	13541.09023
557.977	13585.63138
558.182	13715.19626
558.387	13613.97487
558.592	13678.7575
558.797	13796.16766
559.002	13613.97487
559.207	13844.74821
559.412	13901.42345
559.617	13707.09885
559.822	14026.91126
560.027	13690.90387
560.232	13925.71219
560.437	13413.53075
560.642	13741.5125
560.847	13632.19533
561.051	13962.14458
561.256	13662.56216
561.461	14047.15033
561.666	13820.45814
561.871	14051.19812
562.076	13848.79651
562.281	13885.23075
562.485	13765.80395
562.69	14041.07864
562.895	13848.79651
563.1	14215.126
563.305	13818.43395
563.509	14215.126
563.714	14170.60376
563.919	14627.92961
564.123	13954.04857
564.328	14247.50521
564.533	14008.69589
564.737	14049.17423
564.942	14281.9076
565.147	14368.9231
565.351	14010.71983
565.556	14419.5121
565.761	14330.47478
565.965	14561.15652
566.17	14229.29197
566.374	14435.70038
566.579	14555.08618
566.784	14696.72491
566.988	14526.75776
567.193	14569.25029
567.397	14150.36605
567.602	14791.82258
567.806	14633.99983
568.011	15020.45593
568.215	14882.87204
568.42	14512.59346
568.624	14644.11684
568.828	14712.91188
569.033	14688.6314
569.237	15060.92148
569.442	14824.19587
569.646	14678.5145
569.85	15259.20214
570.055	15261.22541
570.259	15285.50472
570.463	15141.85238
570.668	15075.0844
570.872	14832.28917
571.076	15014.38608
571.281	15386.66894
571.485	15036.64216
571.689	14901.08179
571.893	15109.48004
572.098	15595.0709
572.302	15071.03785
572.506	15451.41454
572.71	15398.8087
572.914	15724.56721
573.119	15319.90047
573.323	15580.90744
573.527	15336.08673
573.731	15730.63744
573.935	15321.92375
574.139	15730.63744
574.343	15230.87631
574.547	15688.14601
574.751	15748.84819
