Data from mixed_try1_USB4F045381__3__00025.txt Node

Date: Thu Apr 03 19:32:16 EDT 2025
User: mmckonesweet
Spectrometer: USB4F04538
Trigger mode: 4
Integration Time (sec): 2.700000E-3
Scans to average: 1
Electric dark correction enabled: true
Nonlinearity correction enabled: true
Boxcar width: 0
XAxis mode: Wavelengths
Number of Pixels in Spectrum: 3648
>>>>>Begin Spectral Data<<<<<
345.52	98.19403
345.736	98.19403
345.952	98.19403
346.168	-15.62904
346.384	5.44413
346.6	15.98162
346.816	-43.0205
347.032	-30.3788
347.248	13.87408
347.464	-57.768
347.68	-11.4146
347.896	24.41204
348.112	1.22931
348.328	7.55158
348.544	58.13747
348.76	24.41204
348.975	-2.98542
349.191	-0.87807
349.407	58.13747
349.623	-21.95051
349.839	89.7604
350.055	5.44413
350.27	-15.62904
350.486	11.76656
350.702	-9.30734
350.918	7.55158
351.133	-45.12736
351.349	13.87408
351.565	-17.73622
351.781	30.7351
351.996	56.02946
352.212	-40.91361
352.428	-19.84338
352.644	11.76656
352.859	11.76656
353.075	-49.34101
353.291	-24.05762
353.506	-28.27177
353.722	-0.87807
353.938	-11.4146
354.153	68.67788
354.369	-0.87807
354.584	9.65906
354.8	77.11062
355.016	-11.4146
355.231	-32.48582
355.447	22.3044
355.662	-15.62904
355.878	85.54372
356.093	15.98162
356.309	-36.69976
356.524	7.55158
356.74	89.7604
356.955	37.05838
357.171	-32.48582
357.386	18.08919
357.602	72.8942
357.817	43.38186
358.033	41.27401
358.248	20.19678
358.464	30.7351
358.679	47.59764
358.895	47.59764
359.11	49.70556
359.325	34.9506
359.541	30.7351
359.756	13.87408
359.972	24.41204
360.187	-47.2342
360.402	15.98162
360.618	-0.87807
360.833	24.41204
361.048	49.70556
361.264	-61.98135
361.479	89.7604
361.694	-19.84338
361.909	-19.84338
362.125	11.76656
362.34	34.9506
362.555	-13.52183
362.77	43.38186
362.986	26.51971
363.201	43.38186
363.416	-70.40773
363.631	-15.62904
363.847	56.02946
364.062	7.55158
364.277	22.3044
364.492	-28.27177
364.707	26.51971
364.922	-17.73622
365.138	56.02946
365.353	-9.30734
365.568	51.8135
365.783	-53.55456
365.998	102.41098
366.213	1.22931
366.428	-66.19459
366.643	-45.12736
366.858	18.08919
367.073	-34.5928
367.288	-11.4146
367.503	127.71452
367.718	43.38186
367.933	-2.98542
368.148	13.87408
368.363	30.7351
368.578	-2.98542
368.793	30.7351
369.008	37.05838
369.223	5.44413
369.438	-13.52183
369.653	37.05838
369.868	-11.4146
370.083	5.44413
370.298	5.44413
370.513	1.22931
370.728	110.84515
370.943	64.46165
371.157	47.59764
371.372	-19.84338
371.587	-24.05762
371.802	22.3044
372.017	-11.4146
372.232	5.44413
372.446	26.51971
372.661	9.65906
372.876	-7.20006
373.091	39.16618
373.306	1.22931
373.52	72.8942
373.735	41.27401
373.95	49.70556
374.165	26.51971
374.379	22.3044
374.594	7.55158
374.809	51.8135
375.023	-19.84338
375.238	66.56975
375.453	34.9506
375.667	5.44413
375.882	18.08919
376.097	-24.05762
376.311	22.3044
376.526	41.27401
376.741	32.84284
376.955	18.08919
377.17	-15.62904
377.384	22.3044
377.599	-45.12736
377.813	-5.09275
378.028	18.08919
378.242	39.16618
378.457	51.8135
378.672	34.9506
378.886	-2.98542
379.101	-15.62904
379.315	18.08919
379.53	-53.55456
379.744	-11.4146
379.958	9.65906
380.173	62.35357
380.387	24.41204
380.602	-9.30734
380.816	24.41204
381.031	58.13747
381.245	15.98162
381.459	64.46165
381.674	22.3044
381.888	43.38186
382.103	26.51971
382.317	-2.98542
382.531	34.9506
382.746	15.98162
382.96	85.54372
383.174	30.7351
383.388	-9.30734
383.603	-30.3788
383.817	43.38186
384.031	-28.27177
384.246	-24.05762
384.46	3.33671
384.674	-38.8067
384.888	58.13747
385.103	53.92147
385.317	13.87408
385.531	-19.84338
385.745	-7.20006
385.959	30.7351
386.174	62.35357
386.388	98.19403
386.602	-26.16471
386.816	-19.84338
387.03	39.16618
387.244	22.3044
387.458	51.8135
387.672	-9.30734
387.887	56.02946
388.101	115.06236
388.315	77.11062
388.529	24.41204
388.743	53.92147
388.957	24.41204
389.171	34.9506
389.385	22.3044
389.599	5.44413
389.813	30.7351
390.027	7.55158
390.241	15.98162
390.455	-11.4146
390.669	32.84284
390.883	85.54372
391.097	41.27401
391.311	-43.0205
391.525	41.27401
391.738	39.16618
391.952	-28.27177
392.166	-9.30734
392.38	24.41204
392.594	-34.5928
392.808	70.78603
393.022	18.08919
393.236	43.38186
393.449	34.9506
393.663	56.02946
393.877	108.73657
394.091	47.59764
394.305	13.87408
394.518	81.32712
394.732	47.59764
394.946	60.24551
395.16	66.56975
395.373	-7.20006
395.587	18.08919
395.801	26.51971
396.015	22.3044
396.228	58.13747
396.442	24.41204
396.656	45.48974
396.869	60.24551
397.083	43.38186
397.297	24.41204
397.51	24.41204
397.724	-2.98542
397.938	22.3044
398.151	56.02946
398.365	47.59764
398.578	13.87408
398.792	81.32712
399.005	-5.09275
399.219	81.32712
399.433	64.46165
399.646	1.22931
399.86	-11.4146
400.073	13.87408
400.287	66.56975
400.5	-40.91361
400.714	66.56975
400.927	72.8942
401.141	-28.27177
401.354	108.73657
401.567	5.44413
401.781	134.0409
401.994	43.38186
402.208	-24.05762
402.421	-43.0205
402.635	108.73657
402.848	30.7351
403.061	-2.98542
403.275	13.87408
403.488	89.7604
403.701	117.171
403.915	39.16618
404.128	-13.52183
404.341	22.3044
404.555	-30.3788
404.768	5.44413
404.981	81.32712
405.195	-2.98542
405.408	22.3044
405.621	-0.87807
405.834	72.8942
406.048	98.19403
406.261	18.08919
406.474	72.8942
406.687	89.7604
406.9	30.7351
407.114	-5.09275
407.327	85.54372
407.54	106.62802
407.753	-45.12736
407.966	32.84284
408.179	64.46165
408.392	100.3025
408.605	-53.55456
408.819	123.49705
409.032	30.7351
409.245	102.41098
409.458	34.9506
409.671	56.02946
409.884	115.06236
410.097	5.44413
410.31	39.16618
410.523	123.49705
410.736	123.49705
410.949	72.8942
411.162	100.3025
411.375	98.19403
411.588	-9.30734
411.801	91.86877
412.014	87.65205
412.227	22.3044
412.44	119.27966
412.653	20.19678
412.865	56.02946
413.078	15.98162
413.291	34.9506
413.504	1.22931
413.717	39.16618
413.93	77.11062
414.143	104.51949
414.356	79.21886
414.568	157.23924
414.781	49.70556
414.994	119.27966
415.207	56.02946
415.42	104.51949
415.632	75.0024
415.845	56.02946
416.058	108.73657
416.271	-0.87807
416.483	56.02946
416.696	58.13747
416.909	22.3044
417.121	60.24551
417.334	-2.98542
417.547	62.35357
417.759	75.0024
417.972	83.43541
418.185	121.38835
418.397	41.27401
418.61	123.49705
418.823	85.54372
419.035	43.38186
419.248	155.13019
419.46	75.0024
419.673	89.7604
419.885	47.59764
420.098	64.46165
420.311	47.59764
420.523	110.84515
420.736	91.86877
420.948	47.59764
421.161	53.92147
421.373	115.06236
421.586	26.51971
421.798	115.06236
422.01	123.49705
422.223	127.71452
422.435	148.80318
422.648	123.49705
422.86	58.13747
423.073	89.7604
423.285	81.32712
423.497	75.0024
423.71	89.7604
423.922	195.20561
424.134	121.38835
424.347	150.91217
424.559	125.60578
424.771	104.51949
424.984	148.80318
425.196	72.8942
425.408	77.11062
425.621	110.84515
425.833	148.80318
426.045	190.9868
426.257	157.23924
426.47	207.86254
426.682	125.60578
426.894	91.86877
427.106	83.43541
427.318	144.58528
427.531	169.89395
427.743	150.91217
427.955	226.84928
428.167	134.0409
428.379	174.11236
428.591	176.22159
428.804	136.14973
429.016	140.36746
429.228	131.93208
429.44	106.62802
429.652	134.0409
429.864	176.22159
430.076	144.58528
430.288	106.62802
430.5	182.54942
430.712	199.42451
430.924	176.22159
431.136	123.49705
431.348	199.42451
431.56	182.54942
431.772	169.89395
431.984	260.60738
432.196	283.8189
432.408	182.54942
432.62	296.48068
432.832	256.38735
433.044	190.9868
433.256	167.78478
433.468	269.04767
433.679	258.49735
433.891	275.37808
434.103	190.9868
434.315	254.27736
434.527	279.59846
434.739	256.38735
434.95	302.81182
435.162	262.71742
435.374	266.93757
435.586	300.70142
435.798	315.47458
436.009	252.16739
436.221	304.92223
436.433	218.41053
436.645	237.39815
436.856	307.03267
437.068	313.36408
437.28	336.58062
437.491	342.91278
437.703	404.13155
437.915	395.68674
438.126	342.91278
438.338	357.68842
438.55	482.25804
438.761	283.8189
438.973	429.46752
439.184	292.26001
439.396	421.02194
439.608	336.58062
439.819	391.46444
440.031	277.48826
440.242	442.13636
440.454	353.46672
440.665	435.80187
440.877	395.68674
441.088	418.91058
441.3	410.46532
441.511	342.91278
441.723	334.46994
441.934	421.02194
442.146	469.58744
442.357	461.14068
442.569	397.79792
442.78	395.68674
442.991	351.3559
443.203	408.35405
443.414	410.46532
443.626	444.24789
443.837	433.6904
444.048	435.80187
444.26	452.69416
444.471	568.85439
444.682	503.37689
444.894	463.25235
445.105	418.91058
445.316	562.51727
445.528	522.3851
445.739	636.45753
445.95	556.18028
446.161	494.92917
446.373	492.81728
446.584	625.89368
446.795	623.78095
447.006	596.31658
447.217	581.52897
447.429	554.06798
447.64	604.76693
447.851	575.19162
448.062	520.27302
448.273	587.86644
448.484	482.25804
448.695	558.2926
448.907	630.11918
449.118	651.24742
449.329	600.54173
449.54	659.69906
449.751	615.33015
449.962	689.28125
450.173	638.57033
450.384	746.3388
450.595	816.086
450.806	756.90586
451.017	723.09218
451.228	655.47322
451.439	824.54092
451.65	750.56559
451.861	750.56559
452.072	862.58981
452.283	663.92495
452.494	909.09773
452.705	849.90653
452.915	739.99868
453.126	860.47591
453.337	813.9723
453.548	862.58981
453.759	951.38093
453.97	959.83792
454.181	1052.87173
454.391	913.32592
454.602	1124.76903
454.813	1006.35331
455.024	1061.32993
455.235	1054.98627
455.445	1048.64267
455.656	970.40932
455.867	1048.64267
456.078	1074.01738
456.288	1103.62217
456.499	1162.8345
456.71	1112.08086
456.921	1027.49769
457.131	1255.88846
457.342	1095.16356
457.553	1196.67155
457.763	1162.8345
457.974	1374.32789
458.184	1224.16482
458.395	1325.68245
458.606	1291.84265
458.816	1435.66417
459.027	1492.77056
459.237	1467.38996
459.448	1520.26612
459.659	1420.85882
459.869	1505.46083
460.08	1632.36126
460.29	1602.75169
460.501	1678.88967
460.711	1678.88967
460.922	1636.59117
461.132	1799.43352
461.343	1831.15347
461.553	1691.57901
461.764	1949.56482
461.974	1681.00457
462.184	1746.56484
462.395	1951.67915
462.605	2163.07853
462.816	1837.49734
463.026	2093.32469
463.236	1998.1929
463.447	2139.82819
463.657	2086.98301
463.867	2279.31484
464.078	2342.70484
464.288	2289.88043
464.498	2275.08854
464.709	2480.01867
464.919	2194.78193
465.129	2363.8329
465.339	2422.98602
465.55	2461.00867
465.76	2492.6915
465.97	2528.59565
466.18	2731.28341
466.391	2948.61498
466.601	2488.46727
466.811	2832.58263
467.021	2830.47255
467.231	3022.43059
467.441	2773.49522
467.651	2942.28708
467.862	3199.5103
468.072	3380.68574
468.282	3328.0315
468.492	3134.17257
468.702	3488.06617
468.912	3464.90962
469.122	3439.64545
469.332	3498.59115
469.542	3410.16733
469.752	3788.89634
469.962	3751.05107
470.172	3965.42276
470.382	3776.28195
470.592	3879.27867
470.802	4049.43282
471.012	4045.2331
471.222	4036.83341
471.432	4250.92119
471.642	4227.84385
471.852	4393.52342
472.062	4183.77996
472.272	4542.30943
472.482	4397.71609
472.691	4649.11501
472.901	4619.80161
473.111	4747.49205
473.321	4824.90266
473.531	5033.96396
473.741	5031.87448
473.95	5125.87789
474.16	4946.18619
474.37	5351.29374
474.58	5175.99382
474.79	5707.64238
474.999	5488.91339
475.209	5449.30611
475.419	5605.6012
475.628	6046.67781
475.838	5663.91738
476.048	5867.87833
476.258	5913.63433
476.467	6378.86534
476.677	6474.25849
476.886	6337.37468
477.096	6669.03976
477.306	6577.89097
477.515	6455.59848
477.725	6561.31366
477.935	6540.58995
478.144	6853.27307
478.354	6888.44315
478.563	7053.86166
478.773	7109.65795
478.982	7307.91351
479.192	7188.15851
479.401	7357.44567
479.611	7076.59545
479.82	7664.67863
480.03	7586.36918
480.239	7598.73588
480.449	7693.52176
480.658	7829.44098
480.868	8088.6729
481.077	8142.12505
481.287	7963.21231
481.496	8464.60999
481.705	8400.97266
481.915	8569.26376
482.124	8559.00576
482.333	8610.29104
482.543	8735.37825
482.752	9007.87462
482.961	8997.6361
483.171	9034.49274
483.38	8952.58136
483.589	9140.93587
483.799	9429.33017
484.008	9462.03507
484.217	9412.97617
484.426	9553.99555
484.636	9584.6419
484.845	9884.79238
485.054	9727.61178
485.263	9941.92712
485.472	9768.44649
485.682	10133.65392
485.891	10141.80974
486.1	10202.97129
486.309	10506.561
486.518	10390.45721
486.727	10575.79615
486.936	10640.94544
487.146	10775.27639
487.355	10769.17157
487.564	10736.61073
487.773	11184.0655
487.982	10954.30443
488.191	11110.88231
488.4	11240.97633
488.609	11429.94427
488.818	11537.59772
489.027	11846.19678
489.236	11653.34656
489.445	11685.83215
489.654	11785.30517
489.863	12095.77499
490.072	11903.0221
490.281	12112.00358
490.49	12205.30866
490.698	12130.26017
490.907	12152.57295
491.116	12489.1878
491.325	12489.1878
491.534	12479.05154
491.743	12614.86416
491.952	12868.17387
492.16	12697.95972
492.369	12955.29236
492.578	12979.60277
492.787	13086.96515
492.996	12870.19999
493.204	13198.36472
493.413	13368.47633
493.622	13645.8605
493.831	13413.02453
494.039	13516.28815
494.248	13441.37239
494.457	13870.55596
494.665	13655.98274
494.874	13848.29047
495.083	13797.68583
495.291	14259.14138
495.5	14170.09782
495.709	14093.19336
495.917	13874.60419
496.126	14295.56722
496.335	14378.53508
496.543	14508.04063
496.752	14042.59656
496.96	14633.49398
497.169	14813.57341
497.377	14815.59674
497.586	14584.93193
497.794	14973.41458
498.003	14767.03666
498.211	14748.82652
498.42	14825.71337
498.628	15440.79218
498.837	15214.18431
499.045	15236.44031
499.254	15200.02141
499.462	15382.11653
499.671	15667.40629
499.879	15722.03795
500.087	15400.32617
500.296	15800.95163
500.504	15758.45945
500.713	15669.42967
500.921	15724.06136
501.129	15752.38918
501.338	15863.67906
501.546	15879.86697
501.754	16003.30245
501.962	15964.85481
502.171	16290.66555
502.379	16576.04123
502.587	16242.09478
502.795	16650.93399
503.004	16515.31959
503.212	16612.47516
503.42	16430.31248
503.628	16766.31548
503.837	16604.37867
504.045	16659.03068
504.253	16962.68478
504.461	17072.01442
504.669	17157.05415
504.877	17128.70702
505.085	17039.61963
505.294	17240.07396
505.502	16974.83213
505.71	17294.74822
505.918	16893.85157
506.126	17436.50654
506.334	17238.04903
506.542	17703.8642
506.75	17543.84794
506.958	17481.06227
507.166	17683.60784
507.374	17647.14723
507.582	17533.72102
507.79	17959.12339
507.998	17884.16065
508.206	18060.43207
508.414	17857.82352
508.622	17902.39439
508.83	18050.3008
509.037	18038.1434
509.245	17805.15102
509.453	18159.72329
509.661	18109.06342
509.869	18500.21778
510.077	18368.46626
510.285	18421.16494
510.492	18244.83702
510.7	18445.48827
510.908	18488.05543
511.116	18585.35815
511.324	18694.83442
511.531	18648.20424
511.739	18528.59715
511.947	18804.32214
512.155	18538.73282
512.362	18775.93532
512.57	18899.62643
512.778	18875.29258
512.985	18875.29258
513.193	18901.65428
513.401	19220.0764
513.608	19130.82697
513.816	18901.65428
514.024	19084.17701
514.231	18603.60341
514.439	19248.47561
514.646	19329.62066
514.854	19327.59196
515.061	19147.05355
515.269	19187.62115
515.477	19368.16687
515.684	19437.14803
515.892	19337.73553
516.099	19855.19574
516.307	19828.80884
516.514	20064.28633
516.722	19964.81049
516.929	19950.60048
517.136	19761.82988
517.344	19747.62281
517.551	19822.71965
517.759	20348.55866
517.966	20208.44271
518.173	19972.93059
518.381	20194.22917
518.588	20255.14581
518.796	20395.26842
519.003	20393.23752
519.21	20504.94352
519.418	20710.1093
519.625	20888.90217
519.832	20876.71073
520.039	20356.68194
520.247	20598.38009
520.454	20492.7568
520.661	21205.93148
520.868	20736.51987
521.076	21506.79405
521.283	20823.88287
521.49	21043.33991
521.697	21149.02147
521.904	21462.06569
522.112	20777.15287
522.319	21321.79381
522.526	20978.3106
522.733	21612.52325
522.94	21183.57359
523.147	21358.38464
523.354	21421.40521
523.561	21730.46451
523.768	21390.91091
523.975	21557.62406
524.183	21901.29918
524.39	21844.35127
524.597	22009.10166
524.804	22041.6479
525.011	21836.2161
525.218	21830.11476
525.425	22297.98307
525.632	22236.94553
525.838	22005.03345
526.045	21968.42022
526.252	22422.10289
526.459	22365.12817
526.666	22827.11084
526.873	22544.20108
527.08	22704.98324
527.287	22715.16006
527.494	22611.36057
527.701	22886.14362
527.907	22818.96861
528.114	23038.82781
528.321	22992.00265
528.528	23236.32704
528.735	23103.97878
528.941	23110.08686
529.148	22702.94789
529.355	23262.79833
529.562	23380.90762
529.768	23578.45882
529.975	22918.71466
530.182	23338.14268
530.388	23181.34994
530.595	23289.27017
530.802	23230.21835
531.008	23710.85459
531.215	23574.3853
531.422	23484.77111
531.628	23706.78068
531.835	23576.42206
532.042	23928.82566
532.248	24230.37205
532.455	23888.08087
532.661	24232.40973
532.868	24030.69261
533.074	24383.20551
533.281	24295.57917
533.487	24682.80134
533.694	24703.18397
533.9	25086.42177
534.107	24544.20599
534.313	24904.98506
534.52	24739.87333
534.726	25004.87494
534.933	24821.40803
535.139	24821.40803
535.345	24862.17682
535.552	24878.48459
535.758	25041.57056
535.965	24568.66315
536.171	25302.53804
536.377	24988.56601
536.584	25683.85736
536.79	25363.70742
536.996	25514.59991
537.203	25127.19653
537.409	25127.19653
537.615	25019.14537
537.821	25424.87869
538.028	25775.62908
538.234	25671.62143
538.44	25632.87477
538.646	25267.87624
538.853	25506.44327
539.059	25302.53804
539.265	25643.07119
539.471	25814.37829
539.677	25944.90692
539.883	26087.68113
540.09	26205.98629
540.296	25967.34229
540.502	26320.2174
540.708	26265.14103
540.914	26607.85763
541.12	26387.53459
541.326	26917.97207
541.532	26766.99104
541.738	26511.97405
541.944	26758.83013
542.15	26995.50591
542.356	26599.69719
542.562	27017.9503
542.768	26599.69719
542.974	26905.73007
543.18	27275.0523
543.386	27215.87615
543.592	27370.96081
543.798	27628.09102
544.004	27660.74387
544.21	27607.68314
544.415	27301.5799
544.621	27403.61116
544.827	27032.23318
545.033	27762.78601
545.239	27354.63576
545.445	28448.58324
545.651	27815.84909
545.856	27697.4787
546.062	27562.78625
546.268	27797.48101
546.474	27652.58063
546.679	27548.50099
546.885	27430.13981
547.091	27528.0936
547.297	27464.83145
547.502	27587.27539
547.708	27662.78468
547.914	27715.84626
548.119	27789.31745
548.325	28497.57349
548.531	27846.46277
548.736	27883.19953
548.942	27772.99039
549.147	28115.87424
549.353	28293.45153
549.559	28338.35744
549.764	28507.77987
549.97	28466.95452
550.175	28969.13559
550.381	28724.16131
550.586	28560.85347
550.792	29107.96099
550.997	28799.69345
551.203	28607.80378
551.408	29056.92168
551.614	29299.8746
551.819	29246.79119
552.025	29330.49997
552.23	29077.33733
552.435	29032.42305
552.641	29371.33415
552.846	29493.83924
553.052	29328.45827
553.257	29814.41241
553.462	29489.75567
553.668	29214.12483
553.873	29536.71692
554.078	29738.86091
554.283	29436.66973
554.489	29714.35805
554.694	29814.41241
554.899	29638.80853
555.105	30316.76703
555.31	29485.67211
555.515	29836.87395
555.72	30039.03394
555.925	30012.48704
556.131	30228.952
556.336	29900.17539
556.541	30335.1472
556.746	30314.72479
556.951	30069.6652
557.156	29691.89722
557.361	30243.24732
557.567	30453.59956
557.772	30386.20374
557.977	30288.17585
558.182	30655.79525
558.387	30878.42964
558.592	30441.34568
558.797	30418.88034
559.002	30518.95438
559.207	30637.4133
559.412	31127.6364
559.617	30663.96504
559.822	30802.85469
560.027	30655.79525
560.232	30610.86179
560.437	30804.89723
560.642	30986.68896
560.847	31242.03373
561.051	31115.37982
561.256	30657.8377
561.461	30917.23913
561.666	30909.06867
561.871	31113.33707
562.076	30954.00648
562.281	31174.62044
562.485	30943.79328
562.69	31174.62044
562.895	31105.16605
563.1	31188.92009
563.305	31233.86234
563.509	31282.89109
563.714	31045.92689
563.919	31438.1548
564.123	31264.5052
564.328	31331.92074
564.533	31793.66333
564.737	31397.29503
564.942	31468.80006
565.147	31873.35366
565.351	31981.65534
565.556	31297.19131
565.761	31587.29858
565.965	31617.94568
566.17	31444.28382
566.374	31769.1438
566.579	32510.98509
566.784	32241.19321
566.988	32132.87817
567.193	32110.39841
567.397	31601.60051
567.602	32463.97312
567.806	32161.48912
568.011	31989.82928
568.215	31965.30758
568.42	31828.3998
568.624	31517.83324
568.828	32012.30775
569.033	32028.65587
569.237	32443.53351
569.442	32682.69137
569.646	32116.52923
569.85	32423.09412
