Data from mixed_try1_USB4F045381__42__00064.txt Node

Date: Thu Apr 03 19:38:59 EDT 2025
User: mmckonesweet
Spectrometer: USB4F04538
Trigger mode: 4
Integration Time (sec): 2.700000E-3
Scans to average: 1
Electric dark correction enabled: true
Nonlinearity correction enabled: true
Boxcar width: 0
XAxis mode: Wavelengths
Number of Pixels in Spectrum: 3648
>>>>>Begin Spectral Data<<<<<
345.52	-37.40208
345.736	-37.40208
345.952	-37.40208
346.168	38.46358
346.384	4.74166
346.6	25.81715
346.816	21.60186
347.032	17.38667
347.248	13.17157
347.464	-20.54576
347.68	49.00291
347.896	-77.42941
348.112	-10.00976
348.328	-45.82964
348.544	4.74166
348.76	25.81715
348.975	-3.68787
349.191	13.17157
349.407	25.81715
349.623	21.60186
349.839	-12.11701
350.055	-50.04327
350.27	34.24801
350.486	-45.82964
350.702	13.17157
350.918	0.52684
351.133	4.74166
351.349	6.8491
351.565	17.38667
351.781	34.24801
351.996	84.84094
352.212	13.17157
352.428	21.60186
352.644	57.4348
352.859	55.32679
353.075	6.8491
353.291	-71.10991
353.506	101.70815
353.722	-39.50901
353.938	-3.68787
354.153	30.03253
354.369	13.17157
354.584	-16.33143
354.8	23.70949
355.016	38.46358
355.231	36.35578
355.447	-12.11701
355.662	-33.18815
355.878	57.4348
356.093	-3.68787
356.309	-12.11701
356.524	8.95656
356.74	-1.58052
356.955	51.11085
357.171	42.67924
357.386	25.81715
357.602	63.75895
357.817	-37.40208
358.033	-37.40208
358.248	-24.75999
358.464	-24.75999
358.679	8.95656
358.895	-60.57691
359.11	49.00291
359.325	-10.00976
359.541	34.24801
359.756	32.14026
359.972	55.32679
360.187	23.70949
360.402	57.4348
360.618	46.895
360.833	-33.18815
361.048	-41.61591
361.264	23.70949
361.479	-35.29512
361.694	36.35578
361.909	11.06405
362.125	21.60186
362.34	-12.11701
362.555	38.46358
362.77	72.19148
362.986	30.03253
363.201	38.46358
363.416	-71.10991
363.631	13.17157
363.847	-7.90249
364.062	38.46358
364.277	-24.75999
364.492	-28.97412
364.707	13.17157
364.922	-28.97412
365.138	40.5714
365.353	44.78711
365.568	8.95656
365.783	49.00291
365.998	-31.08114
366.213	49.00291
366.428	46.895
366.643	65.86705
366.858	-35.29512
367.073	-22.65289
367.288	49.00291
367.503	-52.15005
367.718	38.46358
367.933	-12.11701
368.148	46.895
368.363	32.14026
368.578	91.16598
368.793	17.38667
369.008	38.46358
369.223	11.06405
369.438	6.8491
369.653	4.74166
369.868	105.92518
370.083	11.06405
370.298	-10.00976
370.513	40.5714
370.728	-28.97412
370.943	23.70949
371.157	51.11085
371.372	-79.53586
371.587	42.67924
371.802	-35.29512
372.017	15.2791
372.232	80.62436
372.446	72.19148
372.661	-37.40208
372.876	59.54283
373.091	-50.04327
373.306	55.32679
373.52	30.03253
373.735	15.2791
373.95	-1.58052
374.165	-10.00976
374.379	42.67924
374.594	36.35578
374.809	49.00291
375.023	-5.79519
375.238	-16.33143
375.453	-28.97412
375.667	13.17157
375.882	4.74166
376.097	13.17157
376.311	23.70949
376.526	72.19148
376.741	-16.33143
376.955	80.62436
377.17	30.03253
377.384	51.11085
377.599	15.2791
377.813	46.895
378.028	40.5714
378.242	-14.22423
378.457	55.32679
378.672	-16.33143
378.886	-33.18815
379.101	-24.75999
379.315	19.49425
379.53	49.00291
379.744	55.32679
379.958	-20.54576
380.173	34.24801
380.387	72.19148
380.602	17.38667
380.816	-16.33143
381.031	38.46358
381.245	11.06405
381.459	-24.75999
381.674	30.03253
381.888	38.46358
382.103	99.59967
382.317	17.38667
382.531	-31.08114
382.746	74.29967
382.96	-10.00976
383.174	46.895
383.388	6.8491
383.603	19.49425
383.817	-26.86706
384.031	4.74166
384.246	80.62436
384.46	49.00291
384.674	46.895
384.888	34.24801
385.103	23.70949
385.317	38.46358
385.531	38.46358
385.745	-39.50901
385.959	4.74166
386.174	4.74166
386.388	-20.54576
386.602	0.52684
386.816	-75.32294
387.03	4.74166
387.244	46.895
387.458	4.74166
387.672	17.38667
387.887	-33.18815
388.101	0.52684
388.315	67.97517
388.529	-3.68787
388.743	-45.82964
388.957	42.67924
389.171	72.19148
389.385	34.24801
389.599	30.03253
389.813	57.4348
390.027	72.19148
390.241	21.60186
390.455	82.73264
390.669	82.73264
390.883	40.5714
391.097	17.38667
391.311	74.29967
391.525	-12.11701
391.738	-1.58052
391.952	-45.82964
392.166	40.5714
392.38	-33.18815
392.594	-18.43861
392.808	38.46358
393.022	-18.43861
393.236	0.52684
393.449	34.24801
393.663	97.49122
393.877	80.62436
394.091	57.4348
394.305	0.52684
394.518	55.32679
394.732	-26.86706
394.946	38.46358
395.16	-3.68787
395.373	105.92518
395.587	78.51611
395.801	4.74166
396.015	55.32679
396.228	-12.11701
396.442	-16.33143
396.656	72.19148
396.869	127.01161
397.083	76.40788
397.297	21.60186
397.51	162.86346
397.724	32.14026
397.938	55.32679
398.151	53.21881
398.365	51.11085
398.578	40.5714
398.792	36.35578
399.005	21.60186
399.219	38.46358
399.433	-3.68787
399.646	38.46358
399.86	46.895
400.073	114.35949
400.287	15.2791
400.5	15.2791
400.714	49.00291
400.927	-1.58052
401.141	65.86705
401.354	34.24801
401.567	4.74166
401.781	30.03253
401.994	-7.90249
402.208	-20.54576
402.421	15.2791
402.635	32.14026
402.848	-14.22423
403.061	108.03372
403.275	46.895
403.488	4.74166
403.701	-24.75999
403.915	27.92483
404.128	4.74166
404.341	-52.15005
404.555	-3.68787
404.768	67.97517
404.981	78.51611
405.195	120.68545
405.408	30.03253
405.621	25.81715
405.834	76.40788
406.048	30.03253
406.261	78.51611
406.474	-45.82964
406.687	63.75895
406.9	30.03253
407.114	114.35949
407.327	42.67924
407.54	38.46358
407.753	-7.90249
407.966	21.60186
408.179	65.86705
408.392	67.97517
408.605	-69.00336
408.819	-5.79519
409.032	162.86346
409.245	30.03253
409.458	53.21881
409.671	-75.32294
409.884	-1.58052
410.097	51.11085
410.31	61.65088
410.523	80.62436
410.736	30.03253
410.949	23.70949
411.162	80.62436
411.375	72.19148
411.588	67.97517
411.801	30.03253
412.014	105.92518
412.227	25.81715
412.44	17.38667
412.653	116.46812
412.865	44.78711
413.078	65.86705
413.291	6.8491
413.504	46.895
413.717	27.92483
413.93	86.94927
414.143	89.05761
414.356	32.14026
414.568	63.75895
414.781	105.92518
414.994	0.52684
415.207	6.8491
415.42	4.74166
415.632	105.92518
415.845	13.17157
416.058	4.74166
416.271	63.75895
416.483	93.27437
416.696	55.32679
416.909	55.32679
417.121	-28.97412
417.334	46.895
417.547	63.75895
417.759	40.5714
417.972	84.84094
418.185	120.68545
418.397	-12.11701
418.61	72.19148
418.823	65.86705
419.035	59.54283
419.248	114.35949
419.46	40.5714
419.673	173.40929
419.885	63.75895
420.098	74.29967
420.311	30.03253
420.523	59.54283
420.736	38.46358
420.948	19.49425
421.161	67.97517
421.373	38.46358
421.586	40.5714
421.798	30.03253
422.01	93.27437
422.223	72.19148
422.435	137.55563
422.648	82.73264
422.86	46.895
423.073	97.49122
423.285	80.62436
423.497	65.86705
423.71	-3.68787
423.922	150.20917
424.134	80.62436
424.347	59.54283
424.559	65.86705
424.771	65.86705
424.984	38.46358
425.196	46.895
425.408	-3.68787
425.621	80.62436
425.833	93.27437
426.045	55.32679
426.257	101.70815
426.47	8.95656
426.682	21.60186
426.894	124.90287
427.106	59.54283
427.318	133.33796
427.531	95.38278
427.743	148.10019
427.955	74.29967
428.167	122.79415
428.379	70.08331
428.591	76.40788
428.804	65.86705
429.016	133.33796
429.228	120.68545
429.44	105.92518
429.652	127.01161
429.864	34.24801
430.076	30.03253
430.288	57.4348
430.5	80.62436
430.712	116.46812
430.924	80.62436
431.136	139.6645
431.348	173.40929
431.56	74.29967
431.772	105.92518
431.984	122.79415
432.196	118.57677
432.408	118.57677
432.62	65.86705
432.832	112.25088
433.044	127.01161
433.256	108.03372
433.468	192.39306
433.679	139.6645
433.891	38.46358
434.103	135.44678
434.315	139.6645
434.527	114.35949
434.739	156.53622
434.95	173.40929
435.162	131.22915
435.374	97.49122
435.586	118.57677
435.798	127.01161
436.009	84.84094
436.221	97.49122
436.433	143.8823
436.645	183.95562
436.856	158.64528
437.068	133.33796
437.28	190.28367
437.491	133.33796
437.703	177.62776
437.915	150.20917
438.126	127.01161
438.338	228.25576
438.55	148.10019
438.761	135.44678
438.973	164.97259
439.184	167.08173
439.396	139.6645
439.608	141.77339
439.819	114.35949
440.031	139.6645
440.242	175.51851
440.454	143.8823
440.665	143.8823
440.877	164.97259
441.088	124.90287
441.3	139.6645
441.511	196.6119
441.723	156.53622
441.934	181.84631
442.146	283.11549
442.357	162.86346
442.569	262.01407
442.78	205.04983
442.991	262.01407
443.203	177.62776
443.414	183.95562
443.626	167.08173
443.837	268.3443
444.048	243.02442
444.26	148.10019
444.471	207.15936
444.682	253.57403
444.894	150.20917
445.105	194.50247
445.316	262.01407
445.528	160.75436
445.739	190.28367
445.95	249.35413
446.161	207.15936
446.373	283.11549
446.584	217.70731
446.795	194.50247
447.006	251.46407
447.217	224.03632
447.429	283.11549
447.64	321.10269
447.851	310.5501
448.062	337.98775
448.273	262.01407
448.484	287.336
448.695	224.03632
448.907	291.55658
449.118	243.02442
449.329	325.32385
449.54	359.09566
449.751	325.32385
449.962	308.43963
450.173	209.26891
450.384	359.09566
450.595	333.76638
450.806	333.76638
451.017	276.78487
451.228	299.99796
451.439	321.10269
451.65	257.79401
451.861	295.77723
452.072	365.42837
452.283	451.9903
452.494	350.65229
452.705	401.31658
452.915	401.31658
453.126	384.42741
453.337	456.21352
453.548	413.98415
453.759	333.76638
453.97	445.65559
454.181	517.45693
454.391	392.87187
454.602	437.20952
454.813	538.57818
455.024	504.78487
455.235	530.12951
455.445	470.99526
455.656	409.76156
455.867	536.46599
456.078	468.88354
456.288	405.53904
456.499	462.54846
456.71	506.89684
456.921	511.12083
457.131	544.91483
457.342	559.70082
457.553	604.06272
457.763	494.22521
457.974	701.25563
458.184	570.26265
458.395	646.31739
458.606	536.46599
458.816	692.80309
459.027	705.48196
459.237	580.82481
459.448	766.76868
459.659	728.7276
459.869	764.6552
460.08	790.01762
460.29	758.31482
460.501	800.58571
460.711	817.49515
460.922	800.58571
461.132	916.84943
461.343	859.77128
461.553	942.21932
461.764	935.87675
461.974	872.4548
462.184	878.79667
462.395	1014.10618
462.605	1003.53411
462.816	976.04747
463.026	969.70455
463.236	1043.70879
463.447	1179.04797
463.657	1090.22941
463.867	1204.426
464.078	1200.1963
464.288	1215.00033
464.498	1363.04772
464.709	1272.10301
464.919	1200.1963
465.129	1221.34497
465.339	1375.73791
465.55	1327.09245
465.76	1276.33291
465.97	1409.57856
466.18	1407.46352
466.391	1714.13757
466.601	1432.84411
466.811	1671.84
467.021	1555.51661
467.231	1813.5314
467.441	1528.02125
467.651	1726.8266
467.862	1618.9665
468.072	1931.94516
468.282	1936.17392
468.492	1663.38034
468.702	1967.88883
468.912	2096.84781
469.122	2033.42853
469.332	2134.89618
469.542	2048.22693
469.752	2303.96753
469.962	2333.54905
470.172	2405.38178
470.382	2426.50679
470.592	2430.73166
470.802	2371.5796
471.012	2489.87535
471.222	2559.56911
471.432	2563.79256
471.642	2694.69557
471.852	2711.58275
472.062	2796.00598
472.272	2888.84618
472.482	2768.57078
472.691	3179.84037
472.901	2996.42148
473.111	3021.72767
473.321	3089.19997
473.531	3131.36199
473.741	3074.44177
473.95	3371.55978
474.16	3287.30482
474.37	3552.61218
474.58	3468.41833
474.79	3701.98302
474.999	3592.59394
475.209	3518.93815
475.419	3640.98389
475.628	3964.72253
475.838	3847.05351
476.048	3987.82864
476.258	4006.7318
476.467	4384.43901
476.677	4302.66097
476.886	4493.42486
477.096	4541.61116
477.306	4526.947
477.515	4241.83042
477.725	4665.16572
477.935	4648.41712
478.144	4748.88711
478.354	4644.22975
478.563	4926.6745
478.773	5008.19216
478.982	5242.09847
479.192	5233.7497
479.401	5052.07176
479.611	5321.39314
479.82	5465.28901
480.03	5463.20437
480.239	5519.48162
480.449	5402.73933
480.658	5854.70403
480.868	5927.49753
481.077	6027.28164
481.287	5798.52929
481.496	6000.26214
481.705	6056.37512
481.915	6386.47095
482.124	6282.73106
482.333	6320.08415
482.543	6589.63234
482.752	6481.86017
482.961	6486.00642
483.171	6885.68495
483.38	6614.49396
483.589	6817.40661
483.799	6924.9855
484.008	7173.01178
484.217	6896.02799
484.426	7173.01178
484.636	7020.10043
484.845	7309.28958
485.054	6937.3945
485.263	7309.28958
485.472	7259.74513
485.682	7602.17093
485.891	7527.96051
486.1	7445.47182
486.309	7645.44757
486.518	7849.34071
486.727	7880.21575
486.936	7993.3846
487.146	8028.35155
487.355	8114.71539
487.564	8314.04008
487.773	8650.62724
487.982	8180.49262
488.191	8498.816
488.4	8408.50062
488.609	8718.29388
488.818	8910.93225
489.027	8826.92879
489.236	8910.93225
489.445	9048.14191
489.654	8951.89865
489.863	9181.1811
490.072	9160.71825
490.281	9295.74183
490.49	9295.74183
490.698	9350.95777
490.907	9287.56067
491.116	9743.26581
491.325	9620.73195
491.534	9395.93965
491.743	9657.49794
491.952	9833.08909
492.16	9806.55342
492.369	10118.70101
492.578	10120.74009
492.787	9955.52894
492.996	10145.20793
493.204	10112.5837
493.413	10273.63151
493.622	10446.81692
493.831	10226.753
494.039	10424.41003
494.248	10053.44312
494.457	10695.2269
494.665	10615.83732
494.874	10632.12388
495.083	10471.25902
495.291	11197.61644
495.5	10807.15538
495.709	10961.76201
495.917	10754.24823
496.126	11250.46068
496.335	11136.63352
496.543	11124.43579
496.752	11051.24127
496.96	11321.58618
497.169	11299.2338
497.377	11226.0719
497.586	11230.1368
497.794	11575.50707
498.003	11144.76513
498.211	11622.21238
498.42	11616.12065
498.628	11713.57845
498.837	11760.26972
499.045	11526.76587
499.254	11918.58029
499.462	11951.04799
499.671	12228.97051
499.879	12383.08682
500.087	12192.46324
500.296	12212.74535
500.504	12218.82984
500.713	12417.55474
500.921	12125.52704
501.129	12387.14197
501.338	12269.53138
501.546	12531.08262
501.754	12650.6708
501.962	12569.59642
502.171	12752.00029
502.379	13070.08519
502.587	12533.10972
502.795	12960.69473
503.004	12670.93788
503.212	12741.86799
503.42	13049.82879
503.628	12910.04599
503.837	13068.05957
504.045	13175.4108
504.253	13155.15685
504.461	13386.02585
504.669	13448.79671
504.877	13610.76939
505.085	13511.56389
505.294	13515.61326
505.502	13481.19312
505.71	13718.06408
505.918	13610.76939
506.126	13817.25317
506.334	13560.1554
506.542	13877.97771
506.75	13675.55219
506.958	13979.17982
507.166	13995.37156
507.374	14236.20627
507.582	13697.8205
507.79	13882.02592
507.998	13993.3476
508.206	14300.96359
508.414	13894.17049
508.622	14371.78983
508.83	14161.32817
509.037	14205.85062
509.245	14124.89996
509.453	14412.26107
509.661	14215.96922
509.869	14653.05351
510.077	14282.75079
510.285	14555.92928
510.492	14701.61473
510.7	14861.45867
510.908	14922.15784
511.116	14663.17048
511.324	14642.93652
511.531	14833.13222
511.739	14942.39079
511.947	14869.55192
512.155	14827.06225
512.362	14831.1089
512.57	14812.89896
512.778	15260.04517
512.985	15033.43863
513.193	15185.18409
513.401	15098.18344
513.608	15268.13827
513.816	15266.11499
514.024	15434.04783
514.231	15110.32307
514.439	15553.4237
514.646	15478.56063
514.854	15401.67504
515.061	15059.74123
515.269	15383.46539
515.477	15553.4237
515.684	15806.34749
515.892	15606.03074
516.099	15800.27714
516.307	15658.63831
516.514	16022.86373
516.722	15905.49798
516.929	16105.83206
517.136	16156.42378
517.344	15654.59155
517.551	16273.80058
517.759	16310.22907
517.966	16117.97398
518.173	16207.01652
518.381	16488.33281
518.588	16340.5866
518.796	16557.14985
519.003	16767.66501
519.21	16559.17392
519.418	16632.04183
519.625	16455.94917
519.832	16702.88845
520.039	16874.95671
520.247	16832.44407
520.454	16864.83455
520.661	16953.91175
520.868	16804.10292
521.076	17140.18079
521.283	16974.15727
521.49	17227.24944
521.697	17099.68554
521.904	17158.40402
522.112	17061.21608
522.319	17330.52392
522.526	17051.09271
522.733	17352.79982
522.94	17531.02052
523.147	17115.8835
523.354	17373.05097
523.561	17826.75997
523.768	17239.39898
523.975	17514.81763
524.183	17443.93239
524.39	17652.54874
524.597	17646.47205
524.804	17774.08883
525.011	17806.50156
525.218	17928.05717
525.425	18266.45425
525.632	17891.58918
525.838	17745.72839
526.045	17903.74505
526.252	18183.36534
526.459	18213.763
526.666	18284.69411
526.873	18191.4713
527.08	18501.56916
527.287	18645.50111
527.494	18187.41831
527.701	18639.41908
527.907	18574.5463
528.114	18491.43385
528.321	18479.27159
528.528	18444.81261
528.735	18937.48024
528.941	18941.53609
529.148	18775.25946
529.355	19049.02193
529.562	18923.2849
529.768	18945.59195
529.975	18456.97448
530.182	18860.42218
530.388	18951.67578
530.595	19073.35993
530.802	18669.82957
531.008	19450.67431
531.215	19373.57699
531.422	19515.60303
531.628	19223.45722
531.835	19280.25664
532.042	19363.43305
532.248	19755.06458
532.455	19631.26787
532.661	19962.1038
532.868	19775.36062
533.074	19874.81723
533.281	19990.52436
533.487	20057.51894
533.694	19720.56229
533.9	20479.8932
534.107	20004.73495
534.313	20358.03582
534.52	20226.04072
534.726	20498.1731
534.933	20079.85149
535.139	20337.72773
535.345	20309.2971
535.552	20120.45742
535.758	20262.59143
535.965	20609.891
536.171	20337.72773
536.377	20754.1273
536.584	20412.86977
536.79	20638.3303
536.996	21004.05087
537.203	20680.99078
537.409	20898.38451
537.615	21071.11412
537.821	20733.81106
538.028	21205.25396
538.234	20993.89016
538.44	20863.84215
538.646	20644.42454
538.853	21125.98737
539.059	20888.22487
539.265	20882.12913
539.471	21178.83108
539.677	21343.47711
539.883	21392.26619
540.09	21593.54543
540.296	21650.47992
540.502	21981.98053
540.708	21662.68057
540.914	21815.20053
541.12	21469.52028
541.326	21721.65236
541.532	21996.21904
541.738	21835.53817
541.944	21713.51812
542.15	22209.81881
542.356	21998.25313
542.562	22136.57995
542.768	22297.30486
542.974	21967.74221
543.18	21880.28234
543.386	22348.17196
543.592	22234.23283
543.798	22232.19831
544.004	22380.72811
544.21	22891.57207
544.415	22641.21047
544.621	22736.87091
544.827	22337.99836
545.033	22824.39676
545.239	22702.26944
545.445	23306.91837
545.651	22804.04134
545.856	22960.78686
546.062	22970.96583
546.268	23203.069
546.474	22600.50625
546.679	22366.48468
546.885	22824.39676
547.091	22675.81016
547.297	22555.73325
547.502	22934.32192
547.708	22964.85844
547.914	23372.083
548.119	23260.0833
548.325	23498.34864
548.531	23111.44421
548.736	23137.91292
548.942	23292.66404
549.147	23040.18508
549.353	23630.73665
549.559	23528.89857
549.764	23596.11085
549.97	23219.35854
550.175	23795.73031
550.381	24087.06201
550.586	23583.89019
550.792	24329.54229
550.997	23545.19215
551.203	23726.47134
551.408	24199.12796
551.614	24492.5754
551.819	24135.96249
552.025	24009.63953
552.23	24042.23798
552.435	24549.64088
552.641	24779.96074
552.846	24321.39107
553.052	24580.21249
553.257	24757.53885
553.462	24781.99911
553.668	24327.50448
553.873	24519.06984
554.078	24716.77253
554.283	24333.61791
554.489	24973.61628
554.694	24523.14595
554.899	24940.99913
555.105	24924.69078
555.31	25028.65906
555.515	24965.46194
555.72	25146.90466
555.925	25032.73636
556.131	25285.54688
556.336	24751.42384
556.541	25038.85234
556.746	24936.92203
556.951	24926.72932
557.156	25118.36193
557.361	24806.45971
557.567	25668.90234
557.772	25568.97832
557.977	25326.3259
558.182	25352.83272
558.387	25159.13739
558.592	25638.31285
558.797	25367.10577
559.002	25381.37892
559.207	25609.76306
559.412	25691.33491
559.617	26072.72343
559.822	25856.52733
560.027	25976.86039
560.232	25732.122
560.437	25628.11645
560.642	25193.79722
560.847	26060.48537
561.051	26029.89052
561.256	25524.11603
561.461	25742.31889
561.666	25752.51583
561.871	25793.30407
562.076	26046.20772
562.281	26127.79545
562.485	25862.64581
562.69	25962.58325
562.895	25982.97919
563.1	26341.97629
563.305	26170.63012
563.509	26594.93695
563.714	26472.53358
563.919	26811.19637
564.123	26494.97377
564.328	26484.77366
564.533	26246.10257
564.737	26182.86873
564.942	26543.93486
565.147	26701.02437
565.351	26709.18511
565.556	26441.93362
565.761	26038.04911
565.965	26427.65376
566.17	26631.65905
566.374	26564.33558
566.579	27015.22976
566.784	26701.02437
566.988	26752.02939
567.193	26590.85675
567.397	26362.37543
567.602	26452.13357
567.806	26599.01716
568.011	26803.03534
568.215	27080.52341
568.42	26772.43166
568.624	26735.70768
568.828	26974.42195
569.033	27066.2403
569.237	27164.18295
569.442	27431.50026
569.646	27005.02775
569.85	27496.80249
570.055	27723.32936
570.259	27827.41423
570.463	28135.60463
570.668	27655.98198
