Data from mixed_try1_USB4F045381__20__00042.txt Node

Date: Thu Apr 03 19:33:49 EDT 2025
User: mmckonesweet
Spectrometer: USB4F04538
Trigger mode: 4
Integration Time (sec): 2.700000E-3
Scans to average: 1
Electric dark correction enabled: true
Nonlinearity correction enabled: true
Boxcar width: 0
XAxis mode: Wavelengths
Number of Pixels in Spectrum: 3648
>>>>>Begin Spectral Data<<<<<
345.52	-22.12611
345.736	-22.12611
345.952	-22.12611
346.168	22.12877
346.384	7.37596
346.6	-70.58328
346.816	-28.44736
347.032	-3.16104
347.248	-55.83685
347.464	-34.76838
347.68	17.91356
347.896	81.15143
348.112	15.80599
348.328	11.59093
348.544	24.2364
348.76	-5.26836
348.975	47.42198
349.191	-26.3403
349.407	55.85379
349.623	13.69845
349.839	7.37596
350.055	-55.83685
350.27	-24.23321
350.486	55.85379
350.702	68.5022
350.918	-3.16104
351.133	15.80599
351.349	53.7458
351.565	-64.26353
351.781	81.15143
351.996	-11.5902
352.212	-26.3403
352.428	-85.32845
352.644	-17.91182
352.859	11.59093
353.075	-13.69743
353.291	62.17789
353.506	-17.91182
353.722	20.02115
353.938	26.34407
354.153	45.31408
354.369	20.02115
354.584	93.80147
354.8	-5.26836
355.016	-11.5902
355.231	30.55946
355.447	-28.44736
355.662	-1.05368
355.878	-20.01897
356.093	-5.26836
356.309	-26.3403
356.524	-13.69743
356.74	-28.44736
356.955	-24.23321
357.171	22.12877
357.386	-7.37567
357.602	28.45175
357.817	15.80599
358.033	45.31408
358.248	-3.16104
358.464	28.45175
358.679	20.02115
358.895	-57.94356
359.11	-32.6614
359.325	-47.40976
359.541	-28.44736
359.756	28.45175
359.972	-13.69743
360.187	5.26851
360.402	11.59093
360.618	15.80599
360.833	20.02115
361.048	-3.16104
361.264	87.47635
361.479	-47.40976
361.694	11.59093
361.909	-9.48295
362.125	57.9618
362.34	-62.1569
362.555	-22.12611
362.77	5.26851
362.986	-17.91182
363.201	5.26851
363.416	15.80599
363.631	13.69845
363.847	-1.05368
364.062	104.34378
364.277	-17.91182
364.492	-93.7537
364.707	-66.37014
364.922	30.55946
365.138	-45.30293
365.353	32.66719
365.568	43.20621
365.783	5.26851
365.998	-1.05368
366.213	45.31408
366.428	-17.91182
366.643	7.37596
366.858	15.80599
367.073	20.02115
367.288	62.17789
367.503	-38.98228
367.718	-30.55439
367.933	-53.73012
368.148	-28.44736
368.363	36.88273
368.578	-66.37014
368.793	22.12877
369.008	-47.40976
369.223	45.31408
369.438	-5.26836
369.653	38.99053
369.868	45.31408
370.083	20.02115
370.298	-11.5902
370.513	49.5299
370.728	30.55946
370.943	-13.69743
371.157	-5.26836
371.372	51.63784
371.587	1.05369
371.802	62.17789
372.017	-13.69743
372.232	28.45175
372.446	-53.73012
372.661	17.91356
372.876	-22.12611
373.091	-17.91182
373.306	-47.40976
373.52	-3.16104
373.735	-3.16104
373.95	20.02115
374.165	22.12877
374.379	32.66719
374.594	1.05369
374.809	-13.69743
375.023	11.59093
375.238	43.20621
375.453	20.02115
375.667	-13.69743
375.882	-76.90279
376.097	-5.26836
376.311	-20.01897
376.526	-51.62336
376.741	20.02115
376.955	20.02115
377.17	28.45175
377.384	-17.91182
377.599	-20.01897
377.813	30.55946
378.028	28.45175
378.242	-5.26836
378.457	41.09836
378.672	-55.83685
378.886	-51.62336
379.101	30.55946
379.315	-9.48295
379.53	47.42198
379.744	-17.91182
379.958	22.12877
380.173	-17.91182
380.387	11.59093
380.602	-5.26836
380.816	30.55946
381.031	43.20621
381.245	-15.80464
381.459	-47.40976
381.674	-36.87534
381.888	-121.13285
382.103	20.02115
382.317	-72.68981
382.531	26.34407
382.746	-28.44736
382.96	3.16109
383.174	-22.12611
383.388	20.02115
383.603	24.2364
383.817	28.45175
384.031	-3.16104
384.246	-34.76838
384.46	-22.12611
384.674	5.26851
384.888	5.26851
385.103	11.59093
385.317	32.66719
385.531	83.25972
385.745	-20.01897
385.959	62.17789
386.174	91.69308
386.388	-17.91182
386.602	32.66719
386.816	-70.58328
387.03	36.88273
387.244	-11.5902
387.458	24.2364
387.672	-51.62336
387.887	49.5299
388.101	-55.83685
388.315	49.5299
388.529	64.28597
388.743	-28.44736
388.957	-1.05368
389.171	17.91356
389.385	53.7458
389.599	-13.69743
389.813	45.31408
390.027	-30.55439
390.241	-28.44736
390.455	3.16109
390.669	-22.12611
390.883	-34.76838
391.097	-20.01897
391.311	-41.08919
391.525	-20.01897
391.738	-62.1569
391.952	47.42198
392.166	-20.01897
392.38	20.02115
392.594	-55.83685
392.808	-28.44736
393.022	-17.91182
393.236	-13.69743
393.449	49.5299
393.663	62.17789
393.877	-13.69743
394.091	5.26851
394.305	104.34378
394.518	-13.69743
394.732	3.16109
394.946	-41.08919
395.16	-51.62336
395.373	49.5299
395.587	55.85379
395.801	32.66719
396.015	-22.12611
396.228	-17.91182
396.442	43.20621
396.656	36.88273
396.869	64.28597
397.083	15.80599
397.297	-20.01897
397.51	47.42198
397.724	11.59093
397.938	32.66719
398.151	30.55946
398.365	-51.62336
398.578	15.80599
398.792	53.7458
399.005	-32.6614
399.219	43.20621
399.433	-62.1569
399.646	49.5299
399.86	-43.19607
400.073	-81.11567
400.287	36.88273
400.5	49.5299
400.714	-9.48295
400.927	-15.80464
401.141	22.12877
401.354	47.42198
401.567	47.42198
401.781	62.17789
401.994	-66.37014
402.208	62.17789
402.421	32.66719
402.635	-30.55439
402.848	13.69845
403.061	-34.76838
403.275	-3.16104
403.488	-28.44736
403.701	41.09836
403.915	-1.05368
404.128	11.59093
404.341	30.55946
404.555	-62.1569
404.768	-38.98228
404.981	9.48343
405.195	24.2364
405.408	-1.05368
405.621	22.12877
405.834	3.16109
406.048	38.99053
406.261	3.16109
406.474	79.04317
406.687	-13.69743
406.9	36.88273
407.114	30.55946
407.327	38.99053
407.54	-30.55439
407.753	70.61035
407.966	36.88273
408.179	-15.80464
408.392	68.5022
408.605	11.59093
408.819	5.26851
409.032	79.04317
409.245	-34.76838
409.458	26.34407
409.671	28.45175
409.884	-11.5902
410.097	-95.85994
410.31	60.06984
410.523	-24.23321
410.736	-15.80464
410.949	34.77495
411.162	112.77803
411.375	-17.91182
411.588	20.02115
411.801	-36.87534
412.014	-28.44736
412.227	-45.30293
412.44	-38.98228
412.653	28.45175
412.865	-97.96616
413.078	-1.05368
413.291	13.69845
413.504	-22.12611
413.717	11.59093
413.93	28.45175
414.143	38.99053
414.356	7.37596
414.568	-11.5902
414.781	-13.69743
414.994	20.02115
415.207	45.31408
415.42	53.7458
415.632	41.09836
415.845	51.63784
416.058	22.12877
416.271	-66.37014
416.483	-13.69743
416.696	-22.12611
416.909	-53.73012
417.121	30.55946
417.334	-5.26836
417.547	20.02115
417.759	20.02115
417.972	-11.5902
418.185	-62.1569
418.397	28.45175
418.61	-11.5902
418.823	-5.26836
419.035	28.45175
419.248	62.17789
419.46	41.09836
419.673	64.28597
419.885	45.31408
420.098	62.17789
420.311	-7.37567
420.523	36.88273
420.736	-11.5902
420.948	72.71852
421.161	7.37596
421.373	47.42198
421.586	38.99053
421.798	-3.16104
422.01	47.42198
422.223	-5.26836
422.435	38.99053
422.648	11.59093
422.86	20.02115
423.073	-34.76838
423.285	11.59093
423.497	70.61035
423.71	45.31408
423.922	47.42198
424.134	-1.05368
424.347	60.06984
424.559	89.5847
424.771	-20.01897
424.984	5.26851
425.196	49.5299
425.408	28.45175
425.621	5.26851
425.833	15.80599
426.045	-28.44736
426.257	45.31408
426.47	-9.48295
426.682	9.48343
426.894	24.2364
427.106	24.2364
427.318	-72.68981
427.531	28.45175
427.743	15.80599
427.955	-1.05368
428.167	53.7458
428.379	66.39408
428.591	24.2364
428.804	11.59093
429.016	41.09836
429.228	36.88273
429.44	32.66719
429.652	-30.55439
429.864	32.66719
430.076	32.66719
430.288	22.12877
430.5	-51.62336
430.712	28.45175
430.924	-15.80464
431.136	22.12877
431.348	51.63784
431.56	55.85379
431.772	36.88273
431.984	7.37596
432.196	79.04317
432.408	-5.26836
432.62	45.31408
432.832	24.2364
433.044	24.2364
433.256	-5.26836
433.468	38.99053
433.679	81.15143
433.891	20.02115
434.103	-24.23321
434.315	24.2364
434.527	11.59093
434.739	-5.26836
434.95	70.61035
435.162	-3.16104
435.374	38.99053
435.586	83.25972
435.798	26.34407
436.009	45.31408
436.221	36.88273
436.433	30.55946
436.645	20.02115
436.856	-17.91182
437.068	-17.91182
437.28	15.80599
437.491	45.31408
437.703	-9.48295
437.915	7.37596
438.126	30.55946
438.338	49.5299
438.55	17.91356
438.761	36.88273
438.973	36.88273
439.184	-68.47672
439.396	36.88273
439.608	28.45175
439.819	-22.12611
440.031	-32.6614
440.242	47.42198
440.454	13.69845
440.665	3.16109
440.877	106.45231
441.088	41.09836
441.3	60.06984
441.511	36.88273
441.723	-5.26836
441.934	95.90989
442.146	36.88273
442.357	-11.5902
442.569	-60.05024
442.78	28.45175
442.991	53.7458
443.203	11.59093
443.414	49.5299
443.626	17.91356
443.837	36.88273
444.048	66.39408
444.26	3.16109
444.471	-9.48295
444.682	76.93493
444.894	112.77803
445.105	-17.91182
445.316	-17.91182
445.528	104.34378
445.739	17.91356
445.95	81.15143
446.161	11.59093
446.373	133.86516
446.584	24.2364
446.795	13.69845
447.006	22.12877
447.217	30.55946
447.429	20.02115
447.64	57.9618
447.851	-28.44736
448.062	60.06984
448.273	53.7458
448.484	53.7458
448.695	47.42198
448.907	28.45175
449.118	20.02115
449.329	20.02115
449.54	66.39408
449.751	30.55946
449.962	17.91356
450.173	47.42198
450.384	53.7458
450.595	24.2364
450.806	79.04317
451.017	24.2364
451.228	11.59093
451.439	148.62743
451.65	38.99053
451.861	91.69308
452.072	20.02115
452.283	-1.05368
452.494	20.02115
452.705	72.71852
452.915	32.66719
453.126	-9.48295
453.337	79.04317
453.548	20.02115
453.759	24.2364
453.97	22.12877
454.181	49.5299
454.391	17.91356
454.602	30.55946
454.813	85.36802
455.024	62.17789
455.235	9.48343
455.445	95.90989
455.656	20.02115
455.867	66.39408
456.078	87.47635
456.288	20.02115
456.499	45.31408
456.71	140.19172
456.921	28.45175
457.131	53.7458
457.342	62.17789
457.553	47.42198
457.763	20.02115
457.974	72.71852
458.184	57.9618
458.395	32.66719
458.606	72.71852
458.816	45.31408
459.027	87.47635
459.237	1.05369
459.448	-1.05368
459.659	-13.69743
459.869	57.9618
460.08	81.15143
460.29	-22.12611
460.501	95.90989
460.711	20.02115
460.922	28.45175
461.132	-5.26836
461.343	53.7458
461.553	79.04317
461.764	66.39408
461.974	79.04317
462.184	89.5847
462.395	121.21262
462.605	60.06984
462.816	41.09836
463.026	91.69308
463.236	53.7458
463.447	72.71852
463.657	79.04317
463.867	100.12679
464.078	62.17789
464.288	66.39408
464.498	89.5847
464.709	70.61035
464.919	98.01833
465.129	55.85379
465.339	76.93493
465.55	72.71852
465.76	108.56086
465.97	85.36802
466.18	55.85379
466.391	62.17789
466.601	3.16109
466.811	112.77803
467.021	30.55946
467.231	123.32132
467.441	87.47635
467.651	129.64756
467.862	146.51847
468.072	83.25972
468.282	157.06349
468.492	64.28597
468.702	-1.05368
468.912	95.90989
469.122	138.08285
469.332	190.81102
469.542	45.31408
469.752	72.71852
469.962	79.04317
470.172	163.39074
470.382	100.12679
470.592	104.34378
470.802	216.12509
471.012	116.99528
471.222	112.77803
471.432	55.85379
471.642	85.36802
471.852	112.77803
472.062	154.95444
472.272	108.56086
472.482	171.82738
472.691	230.89295
472.901	197.13926
473.111	184.48295
473.321	224.56375
473.531	173.93659
473.741	184.48295
473.95	161.28164
474.16	133.86516
474.37	222.45405
474.58	277.31241
474.79	256.21151
474.999	241.44201
475.209	159.17255
475.419	178.15507
475.628	216.12509
475.838	264.65165
476.048	214.01547
476.258	289.97385
476.467	332.18339
476.677	239.33216
476.886	399.73318
477.096	311.07772
477.306	300.52556
477.515	359.62338
477.725	281.53282
477.935	357.51251
478.144	349.06919
478.354	334.29405
478.563	361.73427
478.773	351.18
478.982	460.96471
479.192	441.9604
479.401	433.51445
479.611	332.18339
479.82	475.74669
480.03	469.41147
480.239	570.79075
480.449	406.06685
480.658	479.97025
480.868	526.43329
481.077	589.80291
481.287	505.31286
481.496	661.63592
481.705	598.2531
481.915	754.61631
482.124	695.44449
482.333	722.91607
482.543	661.63592
482.752	735.59588
482.961	818.02358
483.171	792.65962
483.38	760.95663
483.589	862.41365
483.799	803.22777
484.008	796.88685
484.217	725.02935
484.426	885.66711
484.636	801.11412
484.845	1016.74922
485.054	955.43323
485.263	1033.66492
485.472	919.49208
485.682	1073.84117
485.891	919.49208
486.1	1084.41419
486.309	1101.33129
486.518	1109.78996
486.727	1105.56061
486.936	1283.20653
487.146	1139.39587
487.355	1145.74011
487.564	1253.59729
487.773	1323.39119
487.982	1101.33129
488.191	1372.0366
488.4	1177.46186
488.609	1350.88633
488.818	1287.43646
489.027	1581.4255
489.236	1429.14277
489.445	1579.3105
489.654	1304.35626
489.863	1592.00049
490.072	1526.43498
490.281	1727.35531
490.49	1545.47026
490.698	1735.81459
490.907	1570.85047
491.116	1871.15437
491.325	1600.46045
491.534	1795.02789
491.743	1666.02399
491.952	1803.48668
492.16	1917.67295
492.369	2076.23725
492.578	1991.67411
492.787	1940.93124
492.996	1871.15437
493.204	2133.31088
493.413	1951.50296
493.622	2074.12331
493.831	2061.4395
494.039	2287.59124
494.248	2124.85588
494.457	2082.57904
494.665	2175.58398
494.874	2277.0256
495.083	2219.96717
495.291	2405.90992
495.5	2224.19394
495.709	2422.80999
495.917	2270.6861
496.126	2492.51549
496.335	2367.88233
496.543	2296.04359
496.752	2369.99506
496.96	2538.97908
497.169	2663.55767
497.377	2507.29996
497.586	2549.53821
497.794	2644.55692
498.003	2606.55238
498.211	2935.78326
498.42	2530.53157
498.628	2861.94643
498.837	2792.31291
499.045	2927.34567
499.254	2775.4298
499.462	2868.27599
499.671	2811.30537
499.879	3091.83529
500.087	2977.96768
500.296	3053.88442
500.504	3024.3636
500.713	3224.62249
500.921	3041.23301
501.129	3034.9071
501.338	2889.3736
501.546	3146.64414
501.754	3041.23301
501.962	3138.21272
502.171	3159.2908
502.379	3332.06871
502.587	3273.08409
502.795	3367.87421
503.004	3112.91689
503.212	3380.51024
503.42	3418.41454
503.628	3471.04983
503.837	3399.4631
504.045	3614.16026
504.253	3454.20776
504.461	3433.15355
504.669	3485.7857
504.877	3731.95083
505.085	3525.77857
505.294	3721.43626
505.502	3698.3025
505.71	3813.94782
505.918	3776.10675
506.126	3860.18933
506.334	3691.99288
506.542	3982.05235
506.75	3652.02802
506.958	3895.91482
507.166	3761.38906
507.374	3992.55459
507.582	4000.95602
507.79	4000.95602
507.998	3927.43249
508.206	4164.71769
508.414	3870.69743
508.622	4219.2766
508.83	3870.69743
509.037	4108.04529
509.245	3898.01614
509.453	4280.11382
509.661	4286.4063
509.869	4324.1571
510.077	4231.86509
510.285	4248.64854
510.492	4231.86509
510.7	4544.22965
510.908	4137.43289
511.116	4361.90091
511.324	4449.94242
511.531	4290.60117
511.739	4349.32042
511.947	4403.83024
512.155	4630.0967
512.362	4449.94242
512.57	4525.37578
512.778	4617.53313
512.985	4519.09076
513.193	4567.27082
513.401	4584.02635
513.608	4674.06283
513.816	4462.51663
514.024	4814.26926
514.231	4734.76166
514.439	4797.53354
514.646	4676.15621
514.854	5008.7146
515.061	4560.98713
515.269	5083.93032
515.477	4795.44147
515.684	4822.63657
515.892	4868.65027
516.099	4914.65291
516.307	4887.47087
516.514	5125.70385
516.722	4812.17737
516.929	5054.68332
517.136	4778.70412
517.344	5088.10809
517.551	5127.79229
517.759	5311.48315
517.966	5121.52692
518.173	5169.55607
518.381	5190.43446
518.588	5357.37758
518.796	5182.08338
519.003	5357.37758
519.21	5242.62026
519.418	5319.82844
519.625	5545.00916
519.832	5511.66636
520.039	5555.42755
520.247	5557.51116
520.454	5494.9927
520.661	5778.23974
520.868	5505.41392
521.076	5905.1426
521.283	5709.55077
521.49	5551.26027
521.697	5399.08994
521.904	5732.44995
522.112	5551.26027
522.319	5774.07751
522.526	5486.65531
522.733	6015.3312
522.94	5932.17612
523.147	5830.25973
523.354	5713.71447
523.561	5905.1426
523.768	5994.54597
523.975	6019.48797
524.183	5851.0636
524.39	6285.32527
524.597	6029.87946
524.804	6102.60347
525.011	6115.06755
525.218	6135.83914
525.425	6121.29928
525.632	6218.902
525.838	6243.81353
526.045	6293.62649
526.252	6169.06879
526.459	6550.7794
526.666	6455.4257
526.873	6544.56217
527.08	6193.98708
527.287	6702.00117
527.494	6085.98338
527.701	6492.74386
527.907	6200.21613
528.114	6666.79611
528.321	6536.27222
528.528	6641.94147
528.735	6339.27654
528.941	6724.77739
529.148	6440.91105
529.355	6565.28545
529.562	6807.57663
529.768	6764.11159
529.975	6604.6533
530.182	6848.96256
530.388	6782.7407
530.595	6733.05896
530.802	6828.27073
531.008	7072.29002
531.215	7144.60844
531.422	7223.09473
531.628	6977.20123
531.835	6995.8093
532.042	6975.13356
532.248	7373.78164
532.455	7144.60844
532.661	7379.97176
532.868	7369.65479
533.074	7373.78164
533.281	7485.17381
533.487	7594.44197
533.694	7295.35648
533.9	7303.61325
534.107	7041.28803
534.313	7592.38087
534.52	7379.97176
534.726	7594.44197
534.933	7559.40026
535.139	7672.74826
535.345	7664.50693
535.552	7660.38614
535.758	7596.50306
535.965	7732.48774
536.171	7711.88992
536.377	7847.79683
536.584	7781.91395
536.79	7800.44566
536.996	7856.03069
537.203	7884.84661
537.409	7639.78093
537.615	7794.26861
537.821	7666.5673
538.028	7839.56264
538.234	7823.09325
538.44	8067.93939
538.646	8028.86572
538.853	8178.9512
539.059	7934.2359
539.265	8092.61374
539.471	8074.10825
539.677	8238.54464
539.883	8242.65392
540.09	8333.03817
540.296	8113.17349
540.502	8427.49046
540.708	8269.36231
540.914	8554.73146
541.12	8390.53574
541.326	8616.27356
541.532	8550.62805
541.738	8573.19586
541.944	8353.57476
542.15	8683.95045
542.356	8634.7329
542.562	8690.1019
542.768	8406.96083
542.974	8587.55601
543.18	8702.40428
543.386	8901.20168
543.592	8698.30356
543.798	9015.8945
544.004	8858.17751
544.21	9001.56092
544.415	8845.88343
544.621	9044.55908
544.827	8817.19473
545.033	9026.13224
545.239	8677.79884
545.445	9026.13224
545.651	9048.65374
545.856	9161.22984
546.062	9081.40854
546.268	8933.97672
546.474	8987.22648
546.679	9011.79928
546.885	8958.55502
547.091	9007.70399
547.297	9060.93731
547.502	9253.29913
547.708	9011.79928
547.914	9427.11563
548.119	9150.99779
548.325	9398.4952
548.531	9155.09066
548.736	9175.55398
548.942	9097.78427
549.147	9382.13923
549.353	9429.15982
549.559	9631.45589
549.764	9492.52185
549.97	9504.78368
550.175	9590.6005
550.381	9796.85707
550.586	9328.97509
550.792	9651.88124
550.997	9376.00547
551.203	9645.7538
551.408	9858.09154
551.614	9913.19114
551.819	9896.86646
552.025	10029.4776
552.23	9966.23992
552.435	9949.91827
552.641	10255.79814
552.846	10182.4156
553.052	9947.878
553.257	10162.02841
553.462	10094.74081
553.668	10190.57009
553.873	10294.52071
554.078	10221.14748
554.283	10035.59664
554.489	10435.10443
554.694	10406.58525
554.899	10263.95066
555.105	10518.61033
555.31	10524.71967
555.515	10170.18345
555.72	10473.80496
555.925	10102.89769
556.131	10400.47367
556.336	10353.61428
556.541	10483.98854
556.746	10343.42653
556.951	10504.35474
557.156	10280.25507
557.361	10455.47371
557.567	10565.44574
557.772	10734.40598
557.977	10612.27453
558.182	10632.63282
558.387	10679.45224
558.592	10781.21153
558.797	10789.35098
559.002	10705.91255
559.207	10683.52319
559.412	10756.79202
559.617	10606.1668
559.822	10980.57477
560.027	10982.60853
560.232	11185.92879
560.437	10988.70973
560.642	10923.62507
560.847	10746.61673
561.051	10976.50723
561.256	10933.7953
561.461	10980.57477
561.666	11185.92879
561.871	11179.83074
562.076	11094.44806
562.281	11397.27049
562.485	10844.28739
562.69	11122.91105
562.895	11135.10883
563.1	11155.43761
563.305	11061.91635
563.509	11358.66814
563.714	11281.45261
563.919	11511.02537
564.123	11289.58125
564.328	11381.0173
564.533	11112.74594
564.737	11364.76349
564.942	11468.37083
565.147	11541.49034
565.351	11417.58609
565.556	11525.24262
565.761	11565.8608
565.965	11655.20778
566.17	11326.15811
566.374	11537.42847
566.579	11573.98399
566.784	11630.84217
566.988	11584.13777
567.193	11927.20472
567.397	11502.90102
567.602	11880.52953
567.806	11630.84217
568.011	11750.62733
568.215	11679.57208
568.42	11614.59771
568.624	11738.4472
568.828	11915.02901
569.033	11732.35702
569.237	11754.68731
569.442	12069.23341
569.646	11915.02901
569.85	11992.13696
570.055	12308.56853
570.259	12020.54224
570.463	12124.00567
570.668	11957.64274
570.872	12101.69172
571.076	11981.99184
571.281	12284.23399
571.485	12304.51284
571.689	12306.54069
571.893	12134.14807
572.098	12523.48094
572.302	12148.34712
572.506	12314.65201
572.71	12430.22628
572.914	12505.23654
573.119	12377.51094
573.323	12414.00666
573.527	12298.42926
573.731	12624.8294
573.935	12604.56095
574.139	12377.51094
574.343	12288.28982
574.547	12610.64155
574.751	12568.07618
574.955	12786.9556
575.159	12752.5069
575.364	12685.63113
575.568	12934.86428
575.772	12791.00829
